%OpenBCI Raw EEG Data
%Number of channels = 8
%Sample Rate = 250 Hz
%Board = OpenBCI_GUI$BoardCytonSerial
Sample Index, EXG Channel 0, EXG Channel 1, EXG Channel 2, EXG Channel 3, EXG Channel 4, EXG Channel 5, EXG Channel 6, EXG Channel 7, Accel Channel 0, Accel Channel 1, Accel Channel 2, Other, Other, Other, Other, Other, Other, Other, Analog Channel 0, Analog Channel 1, Analog Channel 2, Timestamp, Other, Timestamp (Formatted)
0.0, 0.0, 0.0, 0.0, 0.0, 0.0, 0.0, 0.0, 0.0, 0.0, 0.0, 0.0, 192.0, 0.0, 0.0, 0.0, 0.0, 0.0, 0.0, 0.0, 0.0, 0.0, 1.696996041986427E9, 0.0, 2023-10-10 20:47:21.986
1.0, -58163.46355241103, -24698.029422525102, 68182.85652194697, -14513.479413208892, -2148.896711933221, -27554.939991824627, -17998.496353447004, -102246.55744392365, -0.17400000000000002, -0.222, 0.908, 192.0, 250.0, 144.0, 249.0, 16.0, 28.0, 96.0, 0.0, 0.0, 0.0, 1.696996042002431E9, 0.0, 2023-10-10 20:47:22.002
2.0, -58186.06116605535, -24692.441486411273, 68186.70102199329, -14508.11499453962, -2149.254339844506, -27544.993465542015, -17986.09113527431, -102218.19308020987, -0.17400000000000002, -0.222, 0.908, 192.0, 0.0, 0.0, 0.0, 0.0, 0.0, 0.0, 0.0, 0.0, 0.0, 1.696996042009151E9, 0.0, 2023-10-10 20:47:22.009
3.0, -58206.42360525413, -24685.534797374585, 68179.63787074541, -14502.34824447015, -2149.0755258888635, -27531.917695035663, -17969.707306588567, -102185.11249841601, -0.17400000000000002, -0.222, 0.908, 192.0, 0.0, 0.0, 0.0, 0.0, 0.0, 0.0, 0.0, 0.0, 0.0, 1.696996042016163E9, 0.0, 2023-10-10 20:47:22.016
4.0, -58222.71802696205, -24674.35892514693, 68182.27537659113, -14492.468773420904, -2143.308775819394, -27516.78556403942, -17950.574213334825, -102150.4672945103, -0.17400000000000002, -0.222, 0.908, 192.0, 0.0, 0.0, 0.0, 0.0, 0.0, 0.0, 0.0, 0.0, 0.0, 1.696996042016189E9, 0.0, 2023-10-10 20:47:22.016
5.0, -58218.0912158598, -24644.362884087906, 68193.56300754106, -14460.371668383083, -2122.0075633534866, -27474.965450163538, -17908.17295410311, -102090.92224728136, -0.17400000000000002, -0.222, 0.908, 192.0, 0.0, 0.0, 0.0, 0.0, 0.0, 0.0, 0.0, 0.0, 0.0, 1.696996042024259E9, 0.0, 2023-10-10 20:47:22.024
6.0, -58236.5984602688, -24640.317218341497, 68181.73893472421, -14455.923671236476, -2124.220386054562, -27458.33575228879, -17891.25268355044, -102054.89123521939, -0.17400000000000002, -0.222, 0.908, 192.0, 0.0, 0.0, 0.0, 0.0, 0.0, 0.0, 0.0, 0.0, 0.0, 1.696996042024286E9, 0.0, 2023-10-10 20:47:22.024
7.0, -58275.40108864321, -24660.031456951077, 68156.70498093427, -14477.29193893575, -2148.896711933221, -27471.16565360614, -17904.88724766818, -102050.53264505061, -0.17400000000000002, -0.222, 0.908, 192.0, 0.0, 0.0, 0.0, 0.0, 0.0, 0.0, 0.0, 0.0, 0.0, 1.696996042031394E9, 0.0, 2023-10-10 20:47:22.031
8.0, -58292.656635362706, -24662.78072151908, 68169.71369620725, -14480.935273281966, -2156.183380625651, -27471.031543139405, -17904.507268012436, -102033.72413322022, -0.14400000000000002, -0.222, 0.926, 192.0, 251.0, 128.0, 249.0, 16.0, 28.0, 240.0, 0.0, 0.0, 0.0, 1.696996042031419E9, 0.0, 2023-10-10 20:47:22.031
9.0, -58289.639149861236, -24647.98386668967, 68174.11698986495, -14464.14911319603, -2150.215464856084, -27449.23859229548, -17881.19439854555, -101996.19555427975, -0.14400000000000002, -0.222, 0.926, 192.0, 0.0, 0.0, 0.0, 0.0, 0.0, 0.0, 0.0, 0.0, 0.0, 1.696996042039199E9, 0.0, 2023-10-10 20:47:22.039
10.0, -58286.353443426306, -24633.38817756035, 68176.79919919958, -14448.011153699299, -2142.325299063361, -27428.205600763038, -17855.512244166406, -101956.83413229397, -0.14400000000000002, -0.222, 0.926, 192.0, 0.0, 0.0, 0.0, 0.0, 0.0, 0.0, 0.0, 0.0, 0.0, 1.696996042039246E9, 0.0, 2023-10-10 20:47:22.039
11.0, -58298.73630985455, -24631.60003800393, 68165.71273394975, -14445.507758320304, -2145.2980810759163, -27416.448583179546, -17842.52588063787, -101927.7545127576, -0.14400000000000002, -0.222, 0.926, 192.0, 0.0, 0.0, 0.0, 0.0, 0.0, 0.0, 0.0, 0.0, 0.0, 1.696996042046959E9, 0.0, 2023-10-10 20:47:22.046
12.0, -58320.328094998375, -24638.842003207446, 68161.0412193586, -14451.565081067693, -2154.7528689805113, -27415.80038259034, -17840.24600270343, -101907.97321891466, -0.14400000000000002, -0.222, 0.926, 192.0, 0.0, 0.0, 0.0, 0.0, 0.0, 0.0, 0.0, 0.0, 0.0, 1.696996042046986E9, 0.0, 2023-10-10 20:47:22.046
13.0, -58320.8645368653, -24627.353206557418, 68167.88085316191, -14440.14333965103, -2147.4214967991707, -27396.08614398076, -17820.39765362712, -101870.28817776301, -0.14400000000000002, -0.222, 0.926, 192.0, 0.0, 0.0, 0.0, 0.0, 0.0, 0.0, 0.0, 0.0, 0.0, 1.696996042054086E9, 0.0, 2023-10-10 20:47:22.054
14.0, -58323.94907760013, -24618.63602621985, 68158.82839665753, -14431.493214546826, -2147.7567729660004, -27377.22127166048, -17801.733947006935, -101836.69350584669, -0.14400000000000002, -0.222, 0.926, 192.0, 0.0, 0.0, 0.0, 0.0, 0.0, 0.0, 0.0, 0.0, 0.0, 1.696996042054113E9, 0.0, 2023-10-10 20:47:22.054
15.0, -58329.67112418069, -24612.62340696137, 68154.69332393329, -14426.866403444577, -2149.835485200344, -27362.782044742355, -17786.311243332773, -101806.92098223222, -0.14400000000000002, -0.222, 0.926, 192.0, 0.0, 0.0, 0.0, 0.0, 0.0, 0.0, 0.0, 0.0, 0.0, 1.696996042061573E9, 0.0, 2023-10-10 20:47:22.061
16.0, -58329.02292359149, -24601.1569620558, 68160.01303911365, -14415.623475983559, -2145.611005498291, -27341.25731483189, -17766.015859367355, -101766.95606314614, -0.14400000000000002, -0.222, 0.926, 192.0, 0.0, 0.0, 0.0, 0.0, 0.0, 0.0, 0.0, 0.0, 0.0, 1.696996042061712E9, 0.0, 2023-10-10 20:47:22.061
17.0, -58358.75074371705, -24618.904247153314, 68139.47178595922, -14432.275525602761, -2169.2591511320056, -27351.69557949252, -17775.80592343878, -101759.3117665424, -0.14400000000000002, -0.226, 0.9400000000000001, 192.0, 251.0, 128.0, 248.0, 240.0, 29.0, 96.0, 0.0, 0.0, 0.0, 1.696996042068961E9, 0.0, 2023-10-10 20:47:22.068
18.0, -58373.83817122438, -24626.34737805693, 68128.1841550093, -14437.19290938293, -2179.205677414617, -27354.757768482898, -17776.968214150456, -101748.29235652594, -0.14400000000000002, -0.226, 0.9400000000000001, 192.0, 0.0, 0.0, 0.0, 0.0, 0.0, 0.0, 0.0, 0.0, 0.0, 1.69699604207656E9, 0.0, 2023-10-10 20:47:22.076
19.0, -58346.68080171118, -24587.09771479341, 68143.11512030543, -14401.56422872117, -2149.56726426688, -27311.44008772851, -17729.89544032758, -101688.03205347444, -0.14400000000000002, -0.226, 0.9400000000000001, 192.0, 0.0, 0.0, 0.0, 0.0, 0.0, 0.0, 0.0, 0.0, 0.0, 1.696996042076588E9, 0.0, 2023-10-10 20:47:22.076
20.0, -58350.61470873532, -24572.703191364195, 68151.76524540964, -14388.51080995927, -2147.0638688878857, -27289.133046762116, -17705.08500398219, -101647.55304426588, -0.14400000000000002, -0.226, 0.9400000000000001, 192.0, 0.0, 0.0, 0.0, 0.0, 0.0, 0.0, 0.0, 0.0, 0.0, 1.696996042083735E9, 0.0, 2023-10-10 20:47:22.083
21.0, -58351.441723280164, -24561.259098203078, 68155.25211754467, -14372.886940585011, -2143.062906630386, -27267.518909873834, -17680.945119970456, -101606.80581412386, -0.14400000000000002, -0.226, 0.9400000000000001, 192.0, 0.0, 0.0, 0.0, 0.0, 0.0, 0.0, 0.0, 0.0, 0.0, 1.696996042083763E9, 0.0, 2023-10-10 20:47:22.083
22.0, -58337.58364171787, -24539.689664803704, 68158.26960304614, -14347.27184143923, -2127.416685511671, -27232.67254026801, -17646.63519223156, -101551.08291519678, -0.14400000000000002, -0.226, 0.9400000000000001, 192.0, 0.0, 0.0, 0.0, 0.0, 0.0, 0.0, 0.0, 0.0, 0.0, 1.696996042091186E9, 0.0, 2023-10-10 20:47:22.091
23.0, -58348.26777556751, -24537.879173502824, 68141.46109121575, -14345.617812349536, -2130.7247436910566, -27222.167220374016, -17636.39809327103, -101519.34343807024, -0.14400000000000002, -0.226, 0.9400000000000001, 192.0, 0.0, 0.0, 0.0, 0.0, 0.0, 0.0, 0.0, 0.0, 0.0, 1.696996042091213E9, 0.0, 2023-10-10 20:47:22.091
24.0, -58341.092865597355, -24518.008472682057, 68147.33960000749, -14327.445844107371, -2116.6207929397574, -27195.166313072004, -17607.072604545665, -101472.96356832547, -0.14400000000000002, -0.226, 0.9400000000000001, 192.0, 0.0, 0.0, 0.0, 0.0, 0.0, 0.0, 0.0, 0.0, 0.0, 1.69699604209931E9, 0.0, 2023-10-10 20:47:22.099
25.0, -58356.403810549244, -24521.048309927977, 68131.60397191095, -14329.882184253, -2125.226214555051, -27189.75719091382, -17600.992930053824, -101448.13078023563, -0.14400000000000002, -0.226, 0.9400000000000001, 192.0, 0.0, 0.0, 0.0, 0.0, 0.0, 0.0, 0.0, 0.0, 0.0, 1.696996042099351E9, 0.0, 2023-10-10 20:47:22.099
26.0, -58373.45819156864, -24530.346635621387, 68122.01507353963, -14338.107626212553, -2139.6430897287237, -27193.065249093208, -17604.56920916667, -101431.47873061642, -0.14400000000000002, -0.226, 0.9400000000000001, 192.0, 0.0, 0.0, 0.0, 0.0, 0.0, 0.0, 0.0, 0.0, 0.0, 1.696996042107201E9, 0.0, 2023-10-10 20:47:22.107
27.0, -58376.810953236934, -24525.27278963003, 68123.87026832943, -14334.64310582198, -2139.777200195456, -27183.498702466335, -17593.505095661294, -101403.18142213601, -0.134, -0.202, 0.9420000000000001, 192.0, 251.0, 208.0, 249.0, 176.0, 29.0, 112.0, 0.0, 0.0, 0.0, 1.696996042107223E9, 0.0, 2023-10-10 20:47:22.107
28.0, -58376.29686311446, -24517.04734767048, 68121.16570725033, -14328.07169295212, -2138.6372612282353, -27168.478330192367, -17579.24468269881, -101371.17372407601, -0.134, -0.202, 0.9420000000000001, 192.0, 0.0, 0.0, 0.0, 0.0, 0.0, 0.0, 0.0, 0.0, 0.0, 1.696996042113835E9, 0.0, 2023-10-10 20:47:22.113
29.0, -58378.152057904255, -24513.605179024362, 68118.28233221559, -14323.578992316603, -2142.5711682523693, -27159.112949265596, -17568.113513960066, -101342.22821500638, -0.134, -0.202, 0.9420000000000001, 192.0, 0.0, 0.0, 0.0, 0.0, 0.0, 0.0, 0.0, 0.0, 0.0, 1.696996042113856E9, 0.0, 2023-10-10 20:47:22.113
30.0, -58379.046127682464, -24507.99489116608, 68114.12490774691, -14315.889992223978, -2143.7558107085006, -27145.56779212568, -17554.43424635342, -101308.85706053462, -0.134, -0.202, 0.9420000000000001, 192.0, 0.0, 0.0, 0.0, 0.0, 0.0, 0.0, 0.0, 0.0, 0.0, 1.696996042121863E9, 0.0, 2023-10-10 20:47:22.121
31.0, -58368.45140081065, -24486.336050788886, 68122.59621889547, -14292.979454157288, -2128.154293078696, -27114.230646399337, -17523.030045393712, -101257.78332445423, -0.134, -0.202, 0.9420000000000001, 192.0, 0.0, 0.0, 0.0, 0.0, 0.0, 0.0, 0.0, 0.0, 0.0, 1.696996042122041E9, 0.0, 2023-10-10 20:47:22.122
32.0, -58373.16761889072, -24483.855007154347, 68117.45531767074, -14289.067898877609, -2130.5906332243244, -27102.071297415652, -17510.021330120722, -101227.72022816185, -0.134, -0.202, 0.9420000000000001, 192.0, 0.0, 0.0, 0.0, 0.0, 0.0, 0.0, 0.0, 0.0, 0.0, 1.696996042128805E9, 0.0, 2023-10-10 20:47:22.128
33.0, -58355.75560996003, -24456.138844029767, 68128.76530036514, -14262.022288086688, -2112.150444048696, -27063.96157311935, -17471.710440124327, -101170.72327980082, -0.134, -0.202, 0.9420000000000001, 192.0, 0.0, 0.0, 0.0, 0.0, 0.0, 0.0, 0.0, 0.0, 0.0, 1.69699604213632E9, 0.0, 2023-10-10 20:47:22.136
34.0, -58378.3308718599, -24467.18060579069, 68108.02288151061, -14273.756953925724, -2130.389467524227, -27067.26963129874, -17473.0738965361, -101155.5240935712, -0.134, -0.202, 0.9420000000000001, 192.0, 0.0, 0.0, 0.0, 0.0, 0.0, 0.0, 0.0, 0.0, 0.0, 1.696996042136355E9, 0.0, 2023-10-10 20:47:22.136
35.0, -58392.09954644437, -24475.093123327868, 68098.65750058384, -14284.038756375165, -2141.5653397518804, -27070.242413311295, -17476.73958262677, -101140.3249073416, -0.134, -0.202, 0.9420000000000001, 192.0, 0.0, 0.0, 0.0, 0.0, 0.0, 0.0, 0.0, 0.0, 0.0, 1.696996042143907E9, 0.0, 2023-10-10 20:47:22.143
36.0, -58399.967360492636, -24479.138789074277, 68095.59531159345, -14289.291416322163, -2148.896711933221, -27070.287116800206, -17477.99128031627, -101123.53874725566, -0.134, -0.202, 0.9420000000000001, 192.0, 0.0, 0.0, 0.0, 0.0, 0.0, 0.0, 0.0, 0.0, 0.0, 1.696996042143949E9, 0.0, 2023-10-10 20:47:22.143
37.0, -58398.916828503236, -24476.434227995185, 68091.43788712476, -14283.703480208336, -2151.9141974346876, -27062.955744618863, -17468.55884415613, -101097.25309577622, -0.124, -0.184, 0.9480000000000001, 192.0, 252.0, 32.0, 250.0, 64.0, 29.0, 160.0, 0.0, 0.0, 0.0, 1.696996042151566E9, 0.0, 2023-10-10 20:47:22.151
38.0, -58405.46588962864, -24484.726725188106, 68082.67600329829, -14289.961968655822, -2161.4583923171035, -27064.900346386476, -17467.575367400095, -101082.34448222452, -0.124, -0.184, 0.9480000000000001, 192.0, 0.0, 0.0, 0.0, 0.0, 0.0, 0.0, 0.0, 0.0, 0.0, 1.696996042151592E9, 0.0, 2023-10-10 20:47:22.151
39.0, -58392.8818575003, -24471.628602937297, 68098.59044535046, -14276.997956871744, -2153.0764881463633, -27046.370750233025, -17445.44714038934, -101044.5476823506, -0.124, -0.184, 0.9480000000000001, 192.0, 0.0, 0.0, 0.0, 0.0, 0.0, 0.0, 0.0, 0.0, 0.0, 1.696996042159572E9, 0.0, 2023-10-10 20:47:22.159
40.0, -58371.1783136342, -24442.616038634307, 68106.324148932, -14249.326497236074, -2134.3904297817267, -27012.463153894325, -17409.594942283027, -100990.25529506867, -0.124, -0.184, 0.9480000000000001, 192.0, 0.0, 0.0, 0.0, 0.0, 0.0, 0.0, 0.0, 0.0, 0.0, 1.696996042159608E9, 0.0, 2023-10-10 20:47:22.159
41.0, -58379.537866060484, -24441.02906477798, 68092.15314294734, -14249.393552469439, -2141.431229285148, -27002.382517144983, -17400.318968334075, -100965.55661744555, -0.124, -0.184, 0.9480000000000001, 192.0, 0.0, 0.0, 0.0, 0.0, 0.0, 0.0, 0.0, 0.0, 0.0, 1.696996042166058E9, 0.0, 2023-10-10 20:47:22.166
42.0, -58380.43193583869, -24433.965913530104, 68093.38248889238, -14243.000953555222, -2140.894787418221, -26987.362144871015, -17385.07507861556, -100932.74425658515, -0.124, -0.184, 0.9480000000000001, 192.0, 0.0, 0.0, 0.0, 0.0, 0.0, 0.0, 0.0, 0.0, 0.0, 1.69699604216608E9, 0.0, 2023-10-10 20:47:22.166
43.0, -58373.50289505755, -24419.191410445146, 68088.75567779013, -14230.059293515598, -2133.18343558114, -26966.172691127384, -17362.18689229332, -100890.56651479799, -0.124, -0.184, 0.9480000000000001, 192.0, 0.0, 0.0, 0.0, 0.0, 0.0, 0.0, 0.0, 0.0, 0.0, 1.696996042174122E9, 0.0, 2023-10-10 20:47:22.174
44.0, -58391.8313255109, -24429.540268127952, 68074.20469214972, -14246.24195650124, -2147.935586921643, -26973.124083652983, -17368.15480806289, -100880.061194904, -0.124, -0.184, 0.9480000000000001, 192.0, 0.0, 0.0, 0.0, 0.0, 0.0, 0.0, 0.0, 0.0, 0.0, 1.696996042174152E9, 0.0, 2023-10-10 20:47:22.174
45.0, -58354.59331924836, -24388.927148452658, 68104.20073320875, -14208.62397058296, -2114.005638838487, -26923.81613538458, -17318.399824905377, -100811.53074640402, -0.124, -0.184, 0.9480000000000001, 192.0, 0.0, 0.0, 0.0, 0.0, 0.0, 0.0, 0.0, 0.0, 0.0, 1.696996042182366E9, 0.0, 2023-10-10 20:47:22.182
46.0, -58358.21430185012, -24384.836779217338, 68089.49328535715, -14206.008816481688, -2115.2126330390734, -26908.862818343976, -17305.368757887933, -100775.72325178662, -0.134, -0.182, 0.926, 192.0, 251.0, 208.0, 250.0, 80.0, 28.0, 240.0, 0.0, 0.0, 0.0, 1.696996042182526E9, 0.0, 2023-10-10 20:47:22.182
47.0, -58336.98014461758, -24357.38883702622, 68105.81005880953, -14182.718298759259, -2091.229211238529, -26873.189434193308, -17270.924719682305, -100718.65924819223, -0.134, -0.182, 0.926, 192.0, 0.0, 0.0, 0.0, 0.0, 0.0, 0.0, 0.0, 0.0, 0.0, 1.696996042189317E9, 0.0, 2023-10-10 20:47:22.189
48.0, -58340.891699897256, -24350.72801717854, 68091.19201793575, -14181.265435369663, -2091.832708338822, -26856.917364229845, -17257.960707898226, -100680.32600645137, -0.134, -0.182, 0.926, 192.0, 0.0, 0.0, 0.0, 0.0, 0.0, 0.0, 0.0, 0.0, 0.0, 1.696996042189348E9, 0.0, 2023-10-10 20:47:22.189
49.0, -58352.35814480283, -24351.219755556554, 68078.56328231852, -14186.451040083295, -2100.728702632034, -26851.17296590483, -17253.51271075162, -100652.74395379353, -0.134, -0.182, 0.926, 192.0, 0.0, 0.0, 0.0, 0.0, 0.0, 0.0, 0.0, 0.0, 0.0, 1.69699604219596E9, 0.0, 2023-10-10 20:47:22.195
50.0, -58370.15013338925, -24361.34509579481, 68069.53317755857, -14202.343130391018, -2116.4643307285705, -26856.78325376311, -17261.157007355334, -100638.7517617645, -0.134, -0.182, 0.926, 192.0, 0.0, 0.0, 0.0, 0.0, 0.0, 0.0, 0.0, 0.0, 0.0, 1.696996042203811E9, 0.0, 2023-10-10 20:47:22.203
51.0, -58376.83330498139, -24362.194462084113, 68070.62841303687, -14204.801822281102, -2122.6781156871457, -26855.039817695597, -17257.84894917595, -100618.2999155879, -0.134, -0.182, 0.926, 192.0, 0.0, 0.0, 0.0, 0.0, 0.0, 0.0, 0.0, 0.0, 0.0, 1.696996042203835E9, 0.0, 2023-10-10 20:47:22.203
52.0, -58409.17627920822, -24387.697802507617, 68051.29415408304, -14232.182709238854, -2150.483685789548, -26883.203015709285, -17281.94412969877, -100628.82758722635, -0.134, -0.182, 0.926, 192.0, 0.0, 0.0, 0.0, 0.0, 0.0, 0.0, 0.0, 0.0, 0.0, 1.696996042211827E9, 0.0, 2023-10-10 20:47:22.211
53.0, -58408.25985768555, -24383.294508849922, 68059.47489255368, -14231.467453416284, -2149.4331538001484, -26882.398352908895, -17277.31731859652, -100612.01907539596, -0.134, -0.182, 0.926, 192.0, 0.0, 0.0, 0.0, 0.0, 0.0, 0.0, 0.0, 0.0, 0.0, 1.696996042211859E9, 0.0, 2023-10-10 20:47:22.211
54.0, -58379.58256954939, -24349.2975055334, 68081.91604398681, -14202.119612946464, -2125.6508976997015, -26847.529631558613, -17241.576879212487, -100558.4866474255, -0.134, -0.182, 0.926, 192.0, 0.0, 0.0, 0.0, 0.0, 0.0, 0.0, 0.0, 0.0, 0.0, 1.696996042219025E9, 0.0, 2023-10-10 20:47:22.219
55.0, -58349.81004593492, -24314.04880452738, 68087.45927661173, -14167.22853985173, -2099.2981909868945, -26801.462686236227, -17198.080384502457, -100490.1126611367, -0.134, -0.182, 0.926, 192.0, 0.0, 0.0, 0.0, 0.0, 0.0, 0.0, 0.0, 0.0, 0.0, 1.696996042219061E9, 0.0, 2023-10-10 20:47:22.219
56.0, -58379.11318291583, -24337.2946187609, 68059.94427918724, -14192.70952853078, -2122.2757842869505, -26816.9300933993, -17213.257218987612, -100484.6141320007, -0.134, -0.178, 0.924, 192.0, 251.0, 208.0, 250.0, 112.0, 28.0, 224.0, 0.0, 0.0, 0.0, 1.696996042226452E9, 0.0, 2023-10-10 20:47:22.226
57.0, -58377.68267127069, -24326.29756048889, 68072.05892468202, -14186.674557527847, -2113.4915487160147, -26803.78726765958, -17198.41566066929, -100450.34890775073, -0.134, -0.178, 0.924, 192.0, 0.0, 0.0, 0.0, 0.0, 0.0, 0.0, 0.0, 0.0, 0.0, 1.696996042226492E9, 0.0, 2023-10-10 20:47:22.226
58.0, -58381.10248817236, -24319.72614761903, 68062.38061933286, -14185.199342393798, -2112.373961493249, -26792.790209387567, -17190.570198365476, -100420.1964044805, -0.134, -0.178, 0.924, 192.0, 0.0, 0.0, 0.0, 0.0, 0.0, 0.0, 0.0, 0.0, 0.0, 1.696996042234439E9, 0.0, 2023-10-10 20:47:22.234
59.0, -58386.80218300846, -24317.4909731735, 68067.07448566849, -14187.009833694678, -2110.2952492589056, -26782.754276127136, -17187.64211984183, -100395.45302336849, -0.134, -0.178, 0.924, 192.0, 0.0, 0.0, 0.0, 0.0, 0.0, 0.0, 0.0, 0.0, 0.0, 1.696996042234471E9, 0.0, 2023-10-10 20:47:22.234
60.0, -58391.04901445497, -24312.305368459867, 68069.6225845364, -14187.054537183589, -2107.769502135456, -26774.1712062563, -17184.758744807095, -100366.75338348787, -0.134, -0.178, 0.924, 192.0, 0.0, 0.0, 0.0, 0.0, 0.0, 0.0, 0.0, 0.0, 0.0, 1.696996042241561E9, 0.0, 2023-10-10 20:47:22.241
61.0, -58406.874049529324, -24317.53567666241, 68059.9666309317, -14199.929141989845, -2118.27482202945, -26780.20617725923, -17192.380689666355, -100352.67178448103, -0.134, -0.178, 0.924, 192.0, 0.0, 0.0, 0.0, 0.0, 0.0, 0.0, 0.0, 0.0, 0.0, 1.696996042241671E9, 0.0, 2023-10-10 20:47:22.241
62.0, -58444.46968370315, -24345.45300548709, 68039.42537777727, -14233.948497050822, -2148.5614357663912, -26810.98452937419, -17224.74601563764, -100367.13336314361, -0.134, -0.178, 0.924, 192.0, 0.0, 0.0, 0.0, 0.0, 0.0, 0.0, 0.0, 0.0, 0.0, 1.696996042249061E9, 0.0, 2023-10-10 20:47:22.249
63.0, -58437.85356734438, -24330.700854146584, 68057.61969776389, -14224.605467868503, -2137.832598427844, -26798.176979801297, -17214.240695743643, -100338.81370291873, -0.134, -0.178, 0.924, 192.0, 0.0, 0.0, 0.0, 0.0, 0.0, 0.0, 0.0, 0.0, 0.0, 1.696996042249098E9, 0.0, 2023-10-10 20:47:22.249
64.0, -58404.638875083794, -24285.505626857954, 68083.43596260977, -14184.439383082317, -2102.002752065987, -26750.67952283377, -17165.335078875432, -100270.97615849688, -0.134, -0.178, 0.924, 192.0, 0.0, 0.0, 0.0, 0.0, 0.0, 0.0, 0.0, 0.0, 0.0, 1.696996042256042E9, 0.0, 2023-10-10 20:47:22.256
65.0, -58428.555241650974, -24296.77090606343, 68059.78781697605, -14199.884438500934, -2117.872490629255, -26757.452101403727, -17170.520683589064, -100258.03449845726, -0.134, -0.178, 0.924, 192.0, 0.0, 0.0, 0.0, 0.0, 0.0, 0.0, 0.0, 0.0, 0.0, 1.696996042264073E9, 0.0, 2023-10-10 20:47:22.264
66.0, -58474.823352673455, -24334.90298210418, 68039.09010161043, -14241.704552376814, -2152.9423776796316, -26796.29943326705, -17210.239733486145, -100280.98974001285, -0.13, -0.166, 0.934, 192.0, 251.0, 240.0, 250.0, 208.0, 29.0, 48.0, 0.0, 0.0, 0.0, 1.696996042264101E9, 0.0, 2023-10-10 20:47:22.264
67.0, -58478.399631786306, -24334.5453541929, 68051.40591280532, -14242.710380877303, -2152.3388805793384, -26797.037040834075, -17210.820878841983, -100266.19288518345, -0.13, -0.166, 0.934, 192.0, 0.0, 0.0, 0.0, 0.0, 0.0, 0.0, 0.0, 0.0, 0.0, 1.696996042271385E9, 0.0, 2023-10-10 20:47:22.271
68.0, -58458.21600654317, -24308.840848069292, 68068.52734905807, -14218.034054998643, -2133.9433948926207, -26770.617278887905, -17181.696555816718, -100223.81397769619, -0.13, -0.166, 0.934, 192.0, 0.0, 0.0, 0.0, 0.0, 0.0, 0.0, 0.0, 0.0, 0.0, 1.696996042271422E9, 0.0, 2023-10-10 20:47:22.271
69.0, -58449.00708782758, -24281.482312856, 68071.70129677073, -14196.375214621452, -2116.643144684213, -26739.526002350573, -17151.141721146312, -100177.00942480678, -0.13, -0.166, 0.934, 192.0, 0.0, 0.0, 0.0, 0.0, 0.0, 0.0, 0.0, 0.0, 0.0, 1.69699604227871E9, 0.0, 2023-10-10 20:47:22.278
70.0, -58464.45214324619, -24277.883681998694, 68068.63910778036, -14197.962188477779, -2115.480853972537, -26731.2111534132, -17146.224337366144, -100152.4448576504, -0.13, -0.166, 0.934, 192.0, 0.0, 0.0, 0.0, 0.0, 0.0, 0.0, 0.0, 0.0, 0.0, 1.696996042278731E9, 0.0, 2023-10-10 20:47:22.278
71.0, -58494.20231511621, -24295.005118251458, 68055.31746808499, -14219.777491066157, -2133.7198774480676, -26746.790319298547, -17164.217491652667, -100151.10375298306, -0.13, -0.166, 0.934, 192.0, 0.0, 0.0, 0.0, 0.0, 0.0, 0.0, 0.0, 0.0, 0.0, 1.696996042286675E9, 0.0, 2023-10-10 20:47:22.286
72.0, -58491.63186450385, -24281.23644366699, 68069.37671534737, -14209.830964783547, -2122.834577898333, -26730.875877246366, -17150.381761834833, -100119.74425551227, -0.13, -0.166, 0.934, 192.0, 0.0, 0.0, 0.0, 0.0, 0.0, 0.0, 0.0, 0.0, 0.0, 1.696996042286703E9, 0.0, 2023-10-10 20:47:22.286
73.0, -58540.20220520523, -24315.61342663925, 68032.83161316295, -14250.287622247652, -2157.8597614597993, -26766.54926139704, -17189.54201812053, -100140.77724704472, -0.13, -0.166, 0.934, 192.0, 0.0, 0.0, 0.0, 0.0, 0.0, 0.0, 0.0, 0.0, 0.0, 1.696996042294696E9, 0.0, 2023-10-10 20:47:22.294
74.0, -58553.546196645046, -24322.475412187032, 68050.98122966067, -14260.68118341937, -2162.866552217788, -26777.88159583588, -17198.281550202555, -100137.5362440987, -0.13, -0.166, 0.934, 192.0, 0.0, 0.0, 0.0, 0.0, 0.0, 0.0, 0.0, 0.0, 0.0, 1.696996042294718E9, 0.0, 2023-10-10 20:47:22.294
75.0, -58526.38882713185, -24287.137304203192, 68079.07737244098, -14227.57824988106, -2133.272842558961, -26740.44242387324, -17159.993011950613, -100084.2273335728, -0.134, -0.184, 0.928, 192.0, 251.0, 208.0, 250.0, 64.0, 29.0, 0.0, 0.0, 0.0, 0.0, 1.696996042302846E9, 0.0, 2023-10-10 20:47:22.302
76.0, -58529.74158880015, -24274.776789519405, 68077.89272998486, -14219.129290476954, -2126.1649878221738, -26724.170353909776, -17146.671372255252, -100053.0690018021, -0.134, -0.184, 0.928, 192.0, 0.0, 0.0, 0.0, 0.0, 0.0, 0.0, 0.0, 0.0, 0.0, 1.696996042303549E9, 0.0, 2023-10-10 20:47:22.303
77.0, -58562.1739700048, -24289.037202481893, 68060.77129373209, -14240.408151198406, -2144.001679897509, -26738.788394783547, -17162.854035240893, -100055.4159349699, -0.134, -0.184, 0.928, 192.0, 0.0, 0.0, 0.0, 0.0, 0.0, 0.0, 0.0, 0.0, 0.0, 1.696996042309725E9, 0.0, 2023-10-10 20:47:22.309
78.0, -58567.76190611863, -24278.151902932157, 68062.69354375525, -14238.24003198624, -2135.0833338598413, -26727.67957778926, -17155.545014804007, -100031.41016142491, -0.134, -0.184, 0.928, 192.0, 0.0, 0.0, 0.0, 0.0, 0.0, 0.0, 0.0, 0.0, 0.0, 1.696996042309749E9, 0.0, 2023-10-10 20:47:22.309
79.0, -58575.07092655551, -24271.289917384376, 68068.4155903358, -14237.927107563866, -2129.473046001559, -26719.923522463265, -17150.96290719067, -100010.01954198118, -0.134, -0.184, 0.928, 192.0, 0.0, 0.0, 0.0, 0.0, 0.0, 0.0, 0.0, 0.0, 0.0, 1.696996042316411E9, 0.0, 2023-10-10 20:47:22.316
80.0, -58582.134077803385, -24263.779731247396, 68069.15319790282, -14237.413017441395, -2126.1426360777186, -26712.65920551529, -17146.4478548107, -99986.63961728092, -0.134, -0.184, 0.928, 192.0, 0.0, 0.0, 0.0, 0.0, 0.0, 0.0, 0.0, 0.0, 0.0, 1.696996042324996E9, 0.0, 2023-10-10 20:47:22.324
81.0, -58600.57426697901, -24270.485254583986, 68064.07935191147, -14249.840587358545, -2134.926871648654, -26720.32585386346, -17156.72965726014, -99979.73292824424, -0.134, -0.184, 0.928, 192.0, 0.0, 0.0, 0.0, 0.0, 0.0, 0.0, 0.0, 0.0, 0.0, 1.696996042325029E9, 0.0, 2023-10-10 20:47:22.325
82.0, -58613.51592701864, -24271.289917384376, 68064.30286935602, -14257.239014773253, -2136.7597146939893, -26724.751499265614, -17162.518759074064, -99970.5463612731, -0.134, -0.184, 0.928, 192.0, 0.0, 0.0, 0.0, 0.0, 0.0, 0.0, 0.0, 0.0, 0.0, 1.696996042331081E9, 0.0, 2023-10-10 20:47:22.331
83.0, -58627.46341555875, -24270.3287923728, 68062.38061933286, -14262.782247398169, -2138.5255025059587, -26727.366653366884, -17166.899700987306, -99958.36466054496, -0.134, -0.184, 0.928, 192.0, 0.0, 0.0, 0.0, 0.0, 0.0, 0.0, 0.0, 0.0, 0.0, 1.69699604233111E9, 0.0, 2023-10-10 20:47:22.331
84.0, -58629.609183026456, -24261.678667268596, 68073.51178807161, -14257.753104895724, -2130.769447179967, -26719.8564672299, -17157.511968316077, -99934.20242478877, -0.134, -0.184, 0.928, 192.0, 0.0, 0.0, 0.0, 0.0, 0.0, 0.0, 0.0, 0.0, 0.0, 1.696996042339091E9, 0.0, 2023-10-10 20:47:22.339
85.0, -58645.613032056455, -24266.28312662639, 68067.5662240465, -14265.263291032708, -2135.1727408376623, -26723.790374254033, -17161.088247428925, -99924.90409909537, -0.14, -0.194, 0.926, 192.0, 251.0, 160.0, 249.0, 240.0, 28.0, 240.0, 0.0, 0.0, 0.0, 1.696996042339142E9, 0.0, 2023-10-10 20:47:22.339
86.0, -58646.99884021269, -24255.934268943583, 68073.4670845827, -14256.479055461772, -2125.114455832774, -26711.988653181634, -17149.130064145334, -99898.70785459374, -0.14, -0.194, 0.926, 192.0, 0.0, 0.0, 0.0, 0.0, 0.0, 0.0, 0.0, 0.0, 0.0, 1.696996042346884E9, 0.0, 2023-10-10 20:47:22.346
87.0, -58665.37197415495, -24259.08586491178, 68064.68284901176, -14264.749200910235, -2128.8471971568106, -26715.229656127653, -17154.762703748074, -99887.30846492153, -0.14, -0.194, 0.926, 192.0, 0.0, 0.0, 0.0, 0.0, 0.0, 0.0, 0.0, 0.0, 0.0, 1.696996042346913E9, 0.0, 2023-10-10 20:47:22.346
88.0, -58696.61971290347, -24274.419161608123, 68054.7586744736, -14289.313768066619, -2143.666403730679, -26734.072176703477, -17174.655756313296, -99895.01981675862, -0.14, -0.194, 0.926, 192.0, 0.0, 0.0, 0.0, 0.0, 0.0, 0.0, 0.0, 0.0, 0.0, 1.69699604235377E9, 0.0, 2023-10-10 20:47:22.353
89.0, -58715.886916623946, -24277.347240131767, 68058.69258149774, -14300.02025366071, -2149.254339844506, -26742.76700529659, -17184.22230294017, -99892.82934580199, -0.14, -0.194, 0.926, 192.0, 0.0, 0.0, 0.0, 0.0, 0.0, 0.0, 0.0, 0.0, 0.0, 1.69699604235381E9, 0.0, 2023-10-10 20:47:22.353
90.0, -58730.79553017564, -24276.38611512019, 68060.97245943219, -14304.781175229691, -2148.8073049553996, -26748.53375536606, -17189.251445442613, -99885.54267710957, -0.14, -0.194, 0.926, 192.0, 0.0, 0.0, 0.0, 0.0, 0.0, 0.0, 0.0, 0.0, 0.0, 1.696996042361475E9, 0.0, 2023-10-10 20:47:22.361
91.0, -58737.45635002331, -24269.61353655023, 68065.0181251786, -14305.027044418699, -2144.672232231168, -26745.471566375683, -17185.27283492957, -99869.98586296868, -0.14, -0.194, 0.926, 192.0, 0.0, 0.0, 0.0, 0.0, 0.0, 0.0, 0.0, 0.0, 0.0, 1.696996042361519E9, 0.0, 2023-10-10 20:47:22.361
92.0, -58781.623397067, -24300.57070262083, 68040.8111859335, -14341.46038788085, -2175.4505843461257, -26781.949613326742, -17219.60511441292, -99896.22681095921, -0.14, -0.194, 0.926, 192.0, 0.0, 0.0, 0.0, 0.0, 0.0, 0.0, 0.0, 0.0, 0.0, 1.69699604236956E9, 0.0, 2023-10-10 20:47:22.369
93.0, -58785.91493200242, -24296.793257807883, 68055.6080407629, -14339.35932390205, -2171.762546511, -26784.63182266138, -17220.1639080243, -99886.57085735451, -0.14, -0.194, 0.926, 192.0, 0.0, 0.0, 0.0, 0.0, 0.0, 0.0, 0.0, 0.0, 0.0, 1.696996042369582E9, 0.0, 2023-10-10 20:47:22.369
94.0, -58782.58452207858, -24283.33750764579, 68064.72755250067, -14330.016294719731, -2160.541970794436, -26773.433598689273, -17206.909323562304, -99862.92271172079, -0.14, -0.194, 0.926, 192.0, 0.0, 0.0, 0.0, 0.0, 0.0, 0.0, 0.0, 0.0, 0.0, 1.696996042376696E9, 0.0, 2023-10-10 20:47:22.376
95.0, -58813.42992942691, -24306.605673623762, 68054.46810179569, -14359.788818334202, -2180.345616381838, -26801.93207286979, -17233.93258260877, -99879.26183691762, -0.14, -0.212, 0.93, 192.0, 251.0, 160.0, 249.0, 96.0, 29.0, 16.0, 0.0, 0.0, 0.0, 1.696996042383167E9, 0.0, 2023-10-10 20:47:22.383
96.0, -58825.701037132865, -24310.89720855918, 68059.05020940903, -14368.014260293754, -2184.637151317257, -26811.520971241116, -17239.92285012279, -99877.0266624721, -0.14, -0.212, 0.93, 192.0, 0.0, 0.0, 0.0, 0.0, 0.0, 0.0, 0.0, 0.0, 0.0, 1.696996042383198E9, 0.0, 2023-10-10 20:47:22.383
97.0, -58826.23747899979, -24304.10227824477, 68062.87235771089, -14363.32039395814, -2178.803346014422, -26807.810581661535, -17232.79264364155, -99861.87217973139, -0.14, -0.212, 0.93, 192.0, 0.0, 0.0, 0.0, 0.0, 0.0, 0.0, 0.0, 0.0, 0.0, 1.696996042391372E9, 0.0, 2023-10-10 20:47:22.391
98.0, -58835.06641805964, -24304.19168522259, 68066.5156920571, -14371.188208006408, -2179.317436136894, -26812.63855846388, -17235.005466342624, -99856.55246455103, -0.14, -0.212, 0.93, 192.0, 0.0, 0.0, 0.0, 0.0, 0.0, 0.0, 0.0, 0.0, 0.0, 1.696996042391412E9, 0.0, 2023-10-10 20:47:22.391
99.0, -58810.948885792364, -24270.909937728637, 68086.9675382337, -14343.248527437274, -2149.254339844506, -26779.91560458131, -17199.39913742532, -99810.1055395729, -0.14, -0.212, 0.93, 192.0, 0.0, 0.0, 0.0, 0.0, 0.0, 0.0, 0.0, 0.0, 0.0, 1.696996042399269E9, 0.0, 2023-10-10 20:47:22.399
100.0, -58835.424045970925, -24285.907958258147, 68065.37575308987, -14359.989984034299, -2162.508924306503, -26791.24793902015, -17212.11728002039, -99810.84314713994, -0.14, -0.212, 0.93, 192.0, 0.0, 0.0, 0.0, 0.0, 0.0, 0.0, 0.0, 0.0, 0.0, 1.696996042399297E9, 0.0, 2023-10-10 20:47:22.399
101.0, -58854.60184271358, -24296.368574663233, 68065.80043623452, -14374.31745223015, -2172.47780233357, -26805.865979893922, -17227.36116973891, -99815.313496031, -0.14, -0.212, 0.93, 192.0, 0.0, 0.0, 0.0, 0.0, 0.0, 0.0, 0.0, 0.0, 0.0, 1.69699604240638E9, 0.0, 2023-10-10 20:47:22.406
102.0, -58847.20341529887, -24282.28697565639, 68070.56135780351, -14365.019126536743, -2164.922912707676, -26796.7241164117, -17216.900553333828, -99794.34755973192, -0.14, -0.212, 0.93, 192.0, 0.0, 0.0, 0.0, 0.0, 0.0, 0.0, 0.0, 0.0, 0.0, 1.696996042406514E9, 0.0, 2023-10-10 20:47:22.406
103.0, -58846.77873215422, -24276.542577331376, 68072.34949735993, -14363.499207913783, -2160.2290463720615, -26791.113828553418, -17213.771309110085, -99780.64594038081, -0.14, -0.212, 0.93, 192.0, 0.0, 0.0, 0.0, 0.0, 0.0, 0.0, 0.0, 0.0, 0.0, 1.696996042414008E9, 0.0, 2023-10-10 20:47:22.414
104.0, -58837.994496583284, -24261.902184713148, 68077.89272998486, -14353.686792097902, -2148.7178979775786, -26776.339325468463, -17199.488544403142, -99753.15329470078, -0.14, -0.212, 0.93, 192.0, 0.0, 0.0, 0.0, 0.0, 0.0, 0.0, 0.0, 0.0, 0.0, 1.696996042414059E9, 0.0, 2023-10-10 20:47:22.414
105.0, -58870.15865685447, -24289.90892051565, 68057.15031113033, -14387.46027796987, -2174.735328523556, -26807.810581661535, -17230.378655240376, -99774.7003763557, -0.14, -0.244, 0.922, 192.0, 251.0, 160.0, 248.0, 96.0, 28.0, 208.0, 0.0, 0.0, 0.0, 1.69699604242178E9, 0.0, 2023-10-10 20:47:22.421
106.0, -58875.478372034835, -24293.41814439513, 68066.1133606569, -14392.489420472315, -2174.511811079003, -26814.87373290941, -17235.519556465097, -99772.44285016571, -0.14, -0.244, 0.922, 192.0, 0.0, 0.0, 0.0, 0.0, 0.0, 0.0, 0.0, 0.0, 0.0, 1.696996042422067E9, 0.0, 2023-10-10 20:47:22.422
107.0, -58884.1955523724, -24298.179065964112, 68065.04047692305, -14398.434984497428, -2176.188191913151, -26822.920360913322, -17242.22507980169, -99769.8947512978, -0.14, -0.244, 0.922, 192.0, 0.0, 0.0, 0.0, 0.0, 0.0, 0.0, 0.0, 0.0, 0.0, 1.696996042428889E9, 0.0, 2023-10-10 20:47:22.428
108.0, -58865.01775562975, -24273.480388341, 68074.74113401666, -14378.050193554187, -2155.959863181098, -26800.859189135932, -17220.700349891227, -99736.65770729276, -0.14, -0.244, 0.922, 192.0, 0.0, 0.0, 0.0, 0.0, 0.0, 0.0, 0.0, 0.0, 0.0, 1.696996042428916E9, 0.0, 2023-10-10 20:47:22.428
109.0, -58876.90888367998, -24278.28601339889, 68069.57788104747, -14389.069603570653, -2164.230008629562, -26809.531665984592, -17231.406835485323, -99735.92009972574, -0.14, -0.244, 0.922, 192.0, 0.0, 0.0, 0.0, 0.0, 0.0, 0.0, 0.0, 0.0, 0.0, 1.69699604243556E9, 0.0, 2023-10-10 20:47:22.435
110.0, -58878.98759591432, -24276.4308186091, 68069.77904674757, -14391.304778016183, -2166.28636911945, -26810.55984622954, -17231.160966296313, -99726.19709088768, -0.14, -0.244, 0.922, 192.0, 0.0, 0.0, 0.0, 0.0, 0.0, 0.0, 0.0, 0.0, 0.0, 1.696996042435588E9, 0.0, 2023-10-10 20:47:22.435
111.0, -58919.77952954525, -24320.173182508133, 68046.17560460277, -14437.438778571937, -2205.826605060888, -26861.87945149892, -17279.150161641857, -99769.47006815315, -0.14, -0.244, 0.922, 192.0, 0.0, 0.0, 0.0, 0.0, 0.0, 0.0, 0.0, 0.0, 0.0, 1.696996042443444E9, 0.0, 2023-10-10 20:47:22.443
112.0, -58907.03903520573, -24312.886513815705, 68063.5205583001, -14436.365894838083, -2199.8810410357764, -26864.472253855736, -17279.016051175124, -99763.32333842794, -0.14, -0.244, 0.922, 192.0, 0.0, 0.0, 0.0, 0.0, 0.0, 0.0, 0.0, 0.0, 0.0, 1.696996042452938E9, 0.0, 2023-10-10 20:47:22.452
113.0, -58867.00706088627, -24273.972126719014, 68089.4709336127, -14405.766356678769, -2166.3757760972712, -26828.105965626954, -17242.381542012878, -99720.27387860703, -0.14, -0.244, 0.922, 192.0, 0.0, 0.0, 0.0, 0.0, 0.0, 0.0, 0.0, 0.0, 0.0, 1.696996042452971E9, 0.0, 2023-10-10 20:47:22.452
114.0, -58847.583394954614, -24250.681608996583, 68096.10940171593, -14388.980196592833, -2150.126057878263, -26803.027308348097, -17217.92873357877, -99689.22730555861, -0.138, -0.28200000000000003, 0.924, 192.0, 251.0, 176.0, 247.0, 48.0, 28.0, 224.0, 0.0, 0.0, 0.0, 1.6969960424591E9, 0.0, 2023-10-10 20:47:22.459
115.0, -58828.83028135661, -24228.08399535227, 68099.39510815086, -14371.098801028587, -2133.9433948926207, -26777.59102315796, -17192.134820477346, -99652.65985162972, -0.138, -0.28200000000000003, 0.924, 192.0, 0.0, 0.0, 0.0, 0.0, 0.0, 0.0, 0.0, 0.0, 0.0, 1.696996042459121E9, 0.0, 2023-10-10 20:47:22.459
116.0, -58834.239403514795, -24232.643751221152, 68087.72749754519, -14378.810152865668, -2138.4360955281372, -26780.027363303587, -17197.052204257514, -99642.91449104721, -0.138, -0.28200000000000003, 0.924, 192.0, 0.0, 0.0, 0.0, 0.0, 0.0, 0.0, 0.0, 0.0, 0.0, 1.696996042466047E9, 0.0, 2023-10-10 20:47:22.466
117.0, -58845.99642109829, -24242.299704825844, 68082.05015445354, -14393.271731528252, -2145.8121711983886, -26792.49963670965, -17212.497259676133, -99644.83674107036, -0.138, -0.28200000000000003, 0.924, 192.0, 0.0, 0.0, 0.0, 0.0, 0.0, 0.0, 0.0, 0.0, 0.0, 1.696996042466074E9, 0.0, 2023-10-10 20:47:22.466
118.0, -58866.94000565291, -24264.539690558875, 68065.39810483434, -14419.75854870779, -2167.6498255312235, -26819.76876494512, -17240.392236756354, -99663.90277909074, -0.138, -0.28200000000000003, 0.924, 192.0, 0.0, 0.0, 0.0, 0.0, 0.0, 0.0, 0.0, 0.0, 0.0, 1.696996042475505E9, 0.0, 2023-10-10 20:47:22.475
119.0, -58868.482276020324, -24272.116931929224, 68068.05796242451, -14429.414502312482, -2174.7576802680114, -26834.431509307804, -17250.897556650347, -99670.60830242734, -0.138, -0.28200000000000003, 0.924, 192.0, 0.0, 0.0, 0.0, 0.0, 0.0, 0.0, 0.0, 0.0, 0.0, 1.696996042475531E9, 0.0, 2023-10-10 20:47:22.475
120.0, -58861.35206953908, -24272.295745884865, 68074.02587819408, -14434.533051792749, -2176.054081446419, -26840.287666355096, -17255.524367752598, -99669.021328571, -0.138, -0.28200000000000003, 0.924, 192.0, 0.0, 0.0, 0.0, 0.0, 0.0, 0.0, 0.0, 0.0, 0.0, 1.696996042482079E9, 0.0, 2023-10-10 20:47:22.482
121.0, -58859.29570904919, -24279.29184189938, 68071.81305549301, -14442.445569329926, -2182.826660016377, -26850.41300659335, -17262.2745945781, -99671.50237220555, -0.138, -0.28200000000000003, 0.924, 192.0, 0.0, 0.0, 0.0, 0.0, 0.0, 0.0, 0.0, 0.0, 0.0, 1.696996042482105E9, 0.0, 2023-10-10 20:47:22.482
122.0, -58866.045935874696, -24292.680536828106, 68066.04630542354, -14458.605880571115, -2196.371817156293, -26870.954259747778, -17278.032574419092, -99685.02517760101, -0.138, -0.28200000000000003, 0.924, 192.0, 0.0, 0.0, 0.0, 0.0, 0.0, 0.0, 0.0, 0.0, 0.0, 1.696996042489111E9, 0.0, 2023-10-10 20:47:22.489
123.0, -58853.30544153517, -24285.505626857954, 68066.2698228681, -14456.929499736965, -2194.1366427107623, -26873.189434193308, -17274.791571473073, -99681.00186359906, -0.138, -0.28200000000000003, 0.924, 192.0, 0.0, 0.0, 0.0, 0.0, 0.0, 0.0, 0.0, 0.0, 0.0, 1.696996042489148E9, 0.0, 2023-10-10 20:47:22.489
124.0, -58827.243307500285, -24265.94785045956, 68076.52927357308, -14440.009229184298, -2181.1055756933183, -26857.766730519146, -17256.865472419915, -99659.85711334433, -0.116, -0.314, 0.91, 192.0, 252.0, 96.0, 246.0, 48.0, 28.0, 112.0, 0.0, 0.0, 0.0, 1.696996042496684E9, 0.0, 2023-10-10 20:47:22.496
125.0, -58822.147109764475, -24267.311306871332, 68074.15998866082, -14442.154996652007, -2182.513735594003, -26861.49947184318, -17258.18422534278, -99655.90085457574, -0.116, -0.314, 0.91, 192.0, 0.0, 0.0, 0.0, 0.0, 0.0, 0.0, 0.0, 0.0, 0.0, 1.696996042496705E9, 0.0, 2023-10-10 20:47:22.496
126.0, -58816.469766672824, -24268.406542349643, 68074.04822993853, -14443.183176896951, -2183.407805372215, -26860.98538172071, -17255.233795074677, -99648.16715099421, -0.116, -0.314, 0.91, 192.0, 0.0, 0.0, 0.0, 0.0, 0.0, 0.0, 0.0, 0.0, 0.0, 1.696996042503851E9, 0.0, 2023-10-10 20:47:22.503
127.0, -58798.70012983085, -24255.1743096321, 68083.99475622115, -14432.007304669298, -2174.020072700986, -26847.6860937698, -17240.92867862328, -99627.67060132869, -0.116, -0.314, 0.91, 192.0, 0.0, 0.0, 0.0, 0.0, 0.0, 0.0, 0.0, 0.0, 0.0, 1.696996042510818E9, 0.0, 2023-10-10 20:47:22.510
128.0, -58788.48538261478, -24243.774919959895, 68076.23870089516, -14424.005380154298, -2168.1639156536958, -26834.945599430277, -17228.07642556148, -99606.50349932951, -0.116, -0.314, 0.91, 192.0, 0.0, 0.0, 0.0, 0.0, 0.0, 0.0, 0.0, 0.0, 0.0, 1.696996042510846E9, 0.0, 2023-10-10 20:47:22.510
129.0, -58791.05583322714, -24247.99939966195, 68070.24843338113, -14428.47572904536, -2172.2095814001063, -26838.164250631842, -17231.1162628074, -99602.97192370557, -0.116, -0.314, 0.91, 192.0, 0.0, 0.0, 0.0, 0.0, 0.0, 0.0, 0.0, 0.0, 0.0, 1.696996042518863E9, 0.0, 2023-10-10 20:47:22.518
130.0, -58784.39501337946, -24244.89250718266, 68072.34949735993, -14426.888755189033, -2171.114345921796, -26834.74443373018, -17228.12112905039, -99593.0030456785, -0.116, -0.314, 0.91, 192.0, 0.0, 0.0, 0.0, 0.0, 0.0, 0.0, 0.0, 0.0, 0.0, 1.696996042518931E9, 0.0, 2023-10-10 20:47:22.518
131.0, -58754.06369615361, -24214.36002425671, 68085.9170062443, -14398.390281008516, -2148.919063677676, -26805.21777930472, -17196.11343099039, -99554.58039695983, -0.116, -0.314, 0.91, 192.0, 0.0, 0.0, 0.0, 0.0, 0.0, 0.0, 0.0, 0.0, 0.0, 1.696996042526517E9, 0.0, 2023-10-10 20:47:22.526
132.0, -58765.239568381265, -24223.12190808319, 68066.89567171285, -14409.588504980626, -2164.0735464183745, -26815.007843376145, -17205.45646017271, -99557.3967167612, -0.116, -0.314, 0.91, 192.0, 0.0, 0.0, 0.0, 0.0, 0.0, 0.0, 0.0, 0.0, 0.0, 1.696996042526549E9, 0.0, 2023-10-10 20:47:22.526
133.0, -58771.7215742733, -24231.593219231752, 68056.52446228558, -14423.401883054004, -2175.987026213053, -26829.22355284972, -17215.850021344428, -99561.8447139078, -0.116, -0.314, 0.91, 192.0, 0.0, 0.0, 0.0, 0.0, 0.0, 0.0, 0.0, 0.0, 0.0, 1.696996042534513E9, 0.0, 2023-10-10 20:47:22.534
134.0, -58769.86637948351, -24235.124794855692, 68057.82086346399, -14424.966505165876, -2178.3786628697712, -26836.26435235314, -17219.046320801535, -99559.63189120674, -0.11, -0.318, 0.914, 192.0, 252.0, 144.0, 246.0, 16.0, 28.0, 144.0, 0.0, 0.0, 0.0, 1.696996042534534E9, 0.0, 2023-10-10 20:47:22.534
135.0, -58786.138449446975, -24256.493062554964, 68046.84615693643, -14440.724485006867, -2195.8130235449107, -26859.84544275349, -17238.917021622303, -99577.1556588597, -0.11, -0.318, 0.914, 192.0, 0.0, 0.0, 0.0, 0.0, 0.0, 0.0, 0.0, 0.0, 0.0, 1.696996042541006E9, 0.0, 2023-10-10 20:47:22.541
136.0, -58781.98102497829, -24258.795292233863, 68060.6595350098, -14443.004362941309, -2196.6400380897567, -26867.780312035124, -17240.951030367738, -99581.53660077293, -0.11, -0.318, 0.914, 192.0, 0.0, 0.0, 0.0, 0.0, 0.0, 0.0, 0.0, 0.0, 0.0, 1.696996042541028E9, 0.0, 2023-10-10 20:47:22.541
137.0, -58737.07637036758, -24218.3162830253, 68086.90048300034, -14402.257132799285, -2164.9676161965867, -26829.715291227734, -17196.40400366831, -99533.72621938304, -0.11, -0.318, 0.914, 192.0, 0.0, 0.0, 0.0, 0.0, 0.0, 0.0, 0.0, 0.0, 0.0, 1.696996042549008E9, 0.0, 2023-10-10 20:47:22.549
138.0, -58754.6671932539, -24238.768129201908, 68063.565261789, -14420.809080697189, -2189.24161067505, -26848.848384481476, -17212.78783235405, -99547.02550733394, -0.11, -0.318, 0.914, 192.0, 0.0, 0.0, 0.0, 0.0, 0.0, 0.0, 0.0, 0.0, 0.0, 1.696996042549038E9, 0.0, 2023-10-10 20:47:22.549
139.0, -58744.7653704602, -24231.660274465117, 68072.23773863766, -14413.723577704857, -2181.9772937270754, -26843.08163441201, -17200.69553860373, -99535.6484694062, -0.11, -0.318, 0.914, 192.0, 0.0, 0.0, 0.0, 0.0, 0.0, 0.0, 0.0, 0.0, 0.0, 1.696996042557039E9, 0.0, 2023-10-10 20:47:22.557
140.0, -58703.32523624006, -24188.96844255548, 68086.47579985569, -14373.423382451938, -2147.1979793546175, -26798.15462805684, -17152.63928802482, -99481.11021293524, -0.11, -0.318, 0.914, 192.0, 0.0, 0.0, 0.0, 0.0, 0.0, 0.0, 0.0, 0.0, 0.0, 1.696996042557069E9, 0.0, 2023-10-10 20:47:22.557
141.0, -58723.017123105186, -24206.06752706379, 68060.4136658208, -14390.857743127079, -2167.1357354087518, -26812.191523574773, -17165.87152074236, -99485.40174787067, -0.11, -0.318, 0.914, 192.0, 0.0, 0.0, 0.0, 0.0, 0.0, 0.0, 0.0, 0.0, 0.0, 1.696996042564167E9, 0.0, 2023-10-10 20:47:22.564
142.0, -58717.00450384671, -24195.584558914252, 68066.29217461255, -14381.358251733573, -2162.508924306503, -26804.904854882345, -17155.5003113151, -99468.8838087182, -0.11, -0.318, 0.914, 192.0, 0.0, 0.0, 0.0, 0.0, 0.0, 0.0, 0.0, 0.0, 0.0, 1.696996042570672E9, 0.0, 2023-10-10 20:47:22.570
143.0, -58700.352454227504, -24173.903366792605, 68069.2649566251, -14361.331088701618, -2149.8131334558884, -26783.62599416089, -17130.287543569513, -99437.61371822521, -0.10200000000000001, -0.318, 0.902, 192.0, 252.0, 208.0, 246.0, 16.0, 28.0, 48.0, 0.0, 0.0, 0.0, 1.696996042570694E9, 0.0, 2023-10-10 20:47:22.570
144.0, -58716.62452419097, -24186.867378576684, 68054.60221226243, -14374.093934785598, -2166.889866219743, -26794.01955533261, -17137.32834307293, -99440.65355547113, -0.10200000000000001, -0.318, 0.902, 192.0, 0.0, 0.0, 0.0, 0.0, 0.0, 0.0, 0.0, 0.0, 0.0, 1.696996042578869E9, 0.0, 2023-10-10 20:47:22.578
145.0, -58724.06765509459, -24195.897483336626, 68048.76840695959, -14384.487495957315, -2179.9879884705533, -26804.77074441561, -17144.413846065265, -99443.38046829468, -0.10200000000000001, -0.318, 0.902, 192.0, 0.0, 0.0, 0.0, 0.0, 0.0, 0.0, 0.0, 0.0, 0.0, 1.696996042578899E9, 0.0, 2023-10-10 20:47:22.578
146.0, -58725.54287022864, -24198.870265349182, 68043.71691271268, -14388.08612681462, -2187.766395541, -26810.269273551618, -17147.610145522376, -99442.21817758301, -0.10200000000000001, -0.318, 0.902, 192.0, 0.0, 0.0, 0.0, 0.0, 0.0, 0.0, 0.0, 0.0, 0.0, 1.696996042586731E9, 0.0, 2023-10-10 20:47:22.586
147.0, -58696.39619545892, -24170.59530861322, 68060.63718326535, -14357.911271799956, -2166.6887005196454, -26780.9214330818, -17116.787089918507, -99405.94129633205, -0.10200000000000001, -0.318, 0.902, 192.0, 0.0, 0.0, 0.0, 0.0, 0.0, 0.0, 0.0, 0.0, 0.0, 1.696996042586753E9, 0.0, 2023-10-10 20:47:22.586
148.0, -58668.72473582325, -24140.35339836519, 68066.04630542354, -14329.278687152708, -2144.8510461868104, -26745.695083820236, -17079.99611854507, -99359.96375798748, -0.10200000000000001, -0.318, 0.902, 192.0, 0.0, 0.0, 0.0, 0.0, 0.0, 0.0, 0.0, 0.0, 0.0, 1.696996042593923E9, 0.0, 2023-10-10 20:47:22.593
149.0, -58680.86173306248, -24150.098758947704, 68044.16394760179, -14339.471082624326, -2159.2679213604833, -26748.399644899328, -17083.035955790994, -99352.65473755059, -0.10200000000000001, -0.318, 0.902, 192.0, 0.0, 0.0, 0.0, 0.0, 0.0, 0.0, 0.0, 0.0, 0.0, 1.696996042593949E9, 0.0, 2023-10-10 20:47:22.593
150.0, -58700.37480597196, -24173.322221436767, 68026.55077297101, -14358.313603200151, -2183.474860605581, -26766.437502674762, -17100.738537399597, -99364.32234815626, -0.10200000000000001, -0.318, 0.902, 192.0, 0.0, 0.0, 0.0, 0.0, 0.0, 0.0, 0.0, 0.0, 0.0, 1.696996042601323E9, 0.0, 2023-10-10 20:47:22.601
151.0, -58687.72371861026, -24166.54964286681, 68035.64793296432, -14348.12120772853, -2180.6808925486675, -26755.90983103631, -17088.154505271257, -99349.45843809348, -0.10200000000000001, -0.318, 0.902, 192.0, 0.0, 0.0, 0.0, 0.0, 0.0, 0.0, 0.0, 0.0, 0.0, 1.69699604260135E9, 0.0, 2023-10-10 20:47:22.601
152.0, -58677.598378372, -24159.21827068547, 68030.64114220634, -14338.174681445918, -2181.060872204408, -26742.789357041045, -17074.318775453423, -99330.9511936845, -0.10200000000000001, -0.318, 0.902, 192.0, 0.0, 0.0, 0.0, 0.0, 0.0, 0.0, 0.0, 0.0, 0.0, 1.696996042610786E9, 0.0, 2023-10-10 20:47:22.610
153.0, -58670.8481515465, -24154.3008869053, 68029.63531370585, -14331.200937175863, -2182.2455146605394, -26735.614447070893, -17064.439304404175, -99317.3389813112, -0.088, -0.312, 0.904, 192.0, 253.0, 64.0, 246.0, 64.0, 28.0, 64.0, 0.0, 0.0, 0.0, 1.696996042610811E9, 0.0, 2023-10-10 20:47:22.610
154.0, -58655.13487519442, -24139.05699718678, 68030.23881080614, -14314.16890790092, -2173.930665723165, -26713.441516571227, -17041.841690759862, -99287.09707106318, -0.088, -0.312, 0.904, 192.0, 0.0, 0.0, 0.0, 0.0, 0.0, 0.0, 0.0, 0.0, 0.0, 1.696996042617443E9, 0.0, 2023-10-10 20:47:22.617
155.0, -58655.067819961056, -24139.034645442327, 68027.28838053804, -14312.514878811227, -2177.6187035582907, -26706.624234512357, -17034.957353467627, -99273.84248660118, -0.088, -0.312, 0.904, 192.0, 0.0, 0.0, 0.0, 0.0, 0.0, 0.0, 0.0, 0.0, 0.0, 1.696996042617517E9, 0.0, 2023-10-10 20:47:22.617
156.0, -58663.53913110962, -24147.125976935145, 68013.51970595357, -14316.761710257735, -2191.186212442662, -26708.479429302148, -17036.141995923757, -99269.46154468793, -0.088, -0.312, 0.904, 192.0, 0.0, 0.0, 0.0, 0.0, 0.0, 0.0, 0.0, 0.0, 0.0, 1.696996042623682E9, 0.0, 2023-10-10 20:47:22.623
157.0, -58665.975471255246, -24149.29409614731, 68006.65772040578, -14313.476003822805, -2197.8470322903436, -26707.071269401466, -17031.582240054875, -99260.00675678335, -0.088, -0.312, 0.904, 192.0, 0.0, 0.0, 0.0, 0.0, 0.0, 0.0, 0.0, 0.0, 0.0, 1.696996042631072E9, 0.0, 2023-10-10 20:47:22.631
158.0, -58633.47603481723, -24118.024005654337, 68025.56729621498, -14276.483866749271, -2171.5837325553575, -26665.42996948123, -16990.700899446118, -99210.5646980482, -0.088, -0.312, 0.904, 192.0, 0.0, 0.0, 0.0, 0.0, 0.0, 0.0, 0.0, 0.0, 0.0, 1.696996042631101E9, 0.0, 2023-10-10 20:47:22.631
159.0, -58623.08247364551, -24102.266025813347, 68020.56050545699, -14260.480017719272, -2164.6993952631233, -26637.04325402299, -16964.236434011036, -99172.87965689656, -0.088, -0.312, 0.904, 192.0, 0.0, 0.0, 0.0, 0.0, 0.0, 0.0, 0.0, 0.0, 0.0, 1.696996042638913E9, 0.0, 2023-10-10 20:47:22.638
160.0, -58633.90071796188, -24111.631406740118, 68008.19999077321, -14267.230244544775, -2178.2669041474946, -26637.55734414546, -16964.594061922322, -99163.5589794587, -0.088, -0.312, 0.904, 192.0, 0.0, 0.0, 0.0, 0.0, 0.0, 0.0, 0.0, 0.0, 0.0, 1.696996042638935E9, 0.0, 2023-10-10 20:47:22.638
161.0, -58639.242784886694, -24120.639159755607, 67995.77242085605, -14273.198160314341, -2191.476785120581, -26637.758509845557, -16964.392896222223, -99156.87580786656, -0.088, -0.312, 0.904, 192.0, 0.0, 0.0, 0.0, 0.0, 0.0, 0.0, 0.0, 0.0, 0.0, 1.6969960426461E9, 0.0, 2023-10-10 20:47:22.646
162.0, -58602.004778624156, -24084.921072116027, 68018.9064763673, -14235.468415673784, -2164.0064911850086, -26593.814980246425, -16917.498936354987, -99102.35990314007, -0.088, -0.312, 0.904, 192.0, 0.0, 0.0, 0.0, 0.0, 0.0, 0.0, 0.0, 0.0, 0.0, 1.696996042646125E9, 0.0, 2023-10-10 20:47:22.646
163.0, -58586.40326099435, -24063.731618372396, 68007.10475529489, -14217.05057824261, -2154.99873816952, -26560.488529263563, -16885.088906894794, -99057.8352281851, -0.084, -0.29, 0.912, 192.0, 253.0, 96.0, 246.0, 240.0, 28.0, 128.0, 0.0, 0.0, 0.0, 1.696996042653628E9, 0.0, 2023-10-10 20:47:22.653
164.0, -58596.79682216607, -24072.515853943332, 67988.17282774125, -14227.488842903238, -2169.5497238099247, -26558.92390715169, -16888.24050286299, -99046.25702455724, -0.084, -0.29, 0.912, 192.0, 0.0, 0.0, 0.0, 0.0, 0.0, 0.0, 0.0, 0.0, 0.0, 1.69699604265365E9, 0.0, 2023-10-10 20:47:22.653
165.0, -58597.19915356626, -24072.67231615452, 67985.93765329572, -14226.885345802946, -2177.149316924729, -26554.140633838255, -16884.10543013876, -99030.76726564972, -0.084, -0.29, 0.912, 192.0, 0.0, 0.0, 0.0, 0.0, 0.0, 0.0, 0.0, 0.0, 0.0, 1.69699604266149E9, 0.0, 2023-10-10 20:47:22.661
166.0, -58585.53154296059, -24061.608202649142, 67989.02219403055, -14214.10014797451, -2173.1260029227738, -26539.25437203102, -16864.838226418284, -99002.76052984722, -0.084, -0.29, 0.912, 192.0, 0.0, 0.0, 0.0, 0.0, 0.0, 0.0, 0.0, 0.0, 0.0, 1.696996042661514E9, 0.0, 2023-10-10 20:47:22.661
167.0, -58568.58892066347, -24043.682103595987, 67990.27389172005, -14193.603598308993, -2160.676081261168, -26511.85113332881, -16835.71390339302, -98961.14158167143, -0.084, -0.29, 0.912, 192.0, 0.0, 0.0, 0.0, 0.0, 0.0, 0.0, 0.0, 0.0, 0.0, 1.696996042669591E9, 0.0, 2023-10-10 20:47:22.669
168.0, -58584.726880160204, -24059.216565992425, 67968.61505134286, -14206.18763043733, -2179.473898348081, -26519.651892143716, -16842.218261029513, -98956.8053432471, -0.084, -0.29, 0.912, 192.0, 0.0, 0.0, 0.0, 0.0, 0.0, 0.0, 0.0, 0.0, 0.0, 1.696996042669676E9, 0.0, 2023-10-10 20:47:22.669
169.0, -58592.50528723065, -24070.95123183146, 67960.1884436832, -14214.18955495233, -2193.823718288388, -26524.703386390614, -16845.14633955316, -98949.4516193213, -0.084, -0.29, 0.912, 192.0, 0.0, 0.0, 0.0, 0.0, 0.0, 0.0, 0.0, 0.0, 0.0, 1.69699604267675E9, 0.0, 2023-10-10 20:47:22.676
170.0, -58595.8804006434, -24083.736429659897, 67948.87846098882, -14222.973790523267, -2209.2687737070055, -26531.990055083046, -16851.516586722923, -98944.82480821905, -0.084, -0.29, 0.912, 192.0, 0.0, 0.0, 0.0, 0.0, 0.0, 0.0, 0.0, 0.0, 0.0, 1.69699604267678E9, 0.0, 2023-10-10 20:47:22.676
171.0, -58593.801688409054, -24090.57606346322, 67944.43046384222, -14227.086511503043, -2218.9694308006087, -26534.180526039665, -16852.075380334303, -98936.50995928168, -0.084, -0.29, 0.912, 192.0, 0.0, 0.0, 0.0, 0.0, 0.0, 0.0, 0.0, 0.0, 0.0, 1.696996042683226E9, 0.0, 2023-10-10 20:47:22.683
172.0, -58567.91836832981, -24071.62178416512, 67956.9921442261, -14207.036996726632, -2206.9441922836536, -26508.56542689388, -16822.05698753083, -98901.57418269804, -0.084, -0.29, 0.912, 192.0, 0.0, 0.0, 0.0, 0.0, 0.0, 0.0, 0.0, 0.0, 0.0, 1.696996042683256E9, 0.0, 2023-10-10 20:47:22.683
173.0, -58531.50737661211, -24038.272981437804, 67970.60435659938, -14172.212978865264, -2182.513735594003, -26464.778359505937, -16775.56535906379, -98846.70065006026, -0.08, -0.28800000000000003, 0.914, 192.0, 253.0, 128.0, 247.0, 0.0, 28.0, 144.0, 0.0, 0.0, 0.0, 1.696996042692185E9, 0.0, 2023-10-10 20:47:22.692
174.0, -58505.22172513267, -24010.690928779954, 67972.90658627827, -14142.686324439803, -2165.0793749188633, -26422.310045040853, -16734.16992833256, -98790.26249531061, -0.08, -0.28800000000000003, 0.914, 192.0, 0.0, 0.0, 0.0, 0.0, 0.0, 0.0, 0.0, 0.0, 0.0, 1.696996042699258E9, 0.0, 2023-10-10 20:47:22.699
175.0, -58526.45588236522, -24031.74627205685, 67947.06796968794, -14162.109990371466, -2189.733349053067, -26431.876591667726, -16745.189338349028, -98787.4685272537, -0.08, -0.28800000000000003, 0.914, 192.0, 0.0, 0.0, 0.0, 0.0, 0.0, 0.0, 0.0, 0.0, 0.0, 1.69699604269928E9, 0.0, 2023-10-10 20:47:22.699
176.0, -58537.40823714832, -24042.6762750955, 67938.59665853938, -14171.989461420711, -2206.1395294832623, -26438.805632448868, -16748.944431417516, -98781.03122485057, -0.08, -0.28800000000000003, 0.914, 192.0, 0.0, 0.0, 0.0, 0.0, 0.0, 0.0, 0.0, 0.0, 0.0, 1.696996042705821E9, 0.0, 2023-10-10 20:47:22.705
177.0, -58509.021521690076, -24016.301216638236, 67954.98048722511, -14143.938022129301, -2186.7158635516007, -26407.557893700352, -16710.92411409904, -98733.04202950503, -0.08, -0.28800000000000003, 0.914, 192.0, 0.0, 0.0, 0.0, 0.0, 0.0, 0.0, 0.0, 0.0, 0.0, 1.696996042705844E9, 0.0, 2023-10-10 20:47:22.705
178.0, -58498.98558842964, -24000.856161219617, 67950.95717322316, -14133.253888279663, -2182.021997215986, -26384.759114355937, -16685.97956728692, -98697.61451454337, -0.08, -0.28800000000000003, 0.914, 192.0, 0.0, 0.0, 0.0, 0.0, 0.0, 0.0, 0.0, 0.0, 0.0, 1.696996042713935E9, 0.0, 2023-10-10 20:47:22.713
179.0, -58495.0069779166, -23991.446076803935, 67946.41976909873, -14125.341370742486, -2182.469032105092, -26366.78831181387, -16667.807599044754, -98667.79728743999, -0.08, -0.28800000000000003, 0.914, 192.0, 0.0, 0.0, 0.0, 0.0, 0.0, 0.0, 0.0, 0.0, 0.0, 1.696996042713957E9, 0.0, 2023-10-10 20:47:22.713
180.0, -58491.36364357038, -23985.07582963417, 67943.93872546419, -14118.367626472429, -2181.440851860148, -26351.097387206246, -16648.6298023021, -98638.6282609258, -0.08, -0.28800000000000003, 0.914, 192.0, 0.0, 0.0, 0.0, 0.0, 0.0, 0.0, 0.0, 0.0, 0.0, 1.696996042721793E9, 0.0, 2023-10-10 20:47:22.721
181.0, -58510.47438507967, -23999.291539107748, 67920.31293157494, -14132.493928968184, -2200.506889880525, -26358.74168380996, -16653.211909915437, -98632.57093817843, -0.08, -0.28800000000000003, 0.914, 192.0, 0.0, 0.0, 0.0, 0.0, 0.0, 0.0, 0.0, 0.0, 0.0, 1.696996042721813E9, 0.0, 2023-10-10 20:47:22.721
182.0, -58486.937998168236, -23976.738628952342, 67934.08160615941, -14108.354044956452, -2184.5924478283464, -26327.87392471718, -16620.24308684386, -98589.96851324661, -0.092, -0.292, 0.916, 192.0, 253.0, 32.0, 246.0, 224.0, 28.0, 160.0, 0.0, 0.0, 0.0, 1.69699604272844E9, 0.0, 2023-10-10 20:47:22.728
183.0, -58478.62314923086, -23963.998134612815, 67923.55393452095, -14094.942998283268, -2182.737253038556, -26304.806924439305, -16597.779583666277, -98552.21641686159, -0.092, -0.292, 0.916, 192.0, 0.0, 0.0, 0.0, 0.0, 0.0, 0.0, 0.0, 0.0, 0.0, 1.696996042728557E9, 0.0, 2023-10-10 20:47:22.728
184.0, -58488.07793713545, -23963.193471812425, 67914.81440243893, -14097.200524473254, -2193.734311310567, -26300.940072648536, -16593.28688303076, -98532.47982650755, -0.092, -0.292, 0.916, 192.0, 0.0, 0.0, 0.0, 0.0, 0.0, 0.0, 0.0, 0.0, 0.0, 1.696996042736424E9, 0.0, 2023-10-10 20:47:22.736
185.0, -58473.214027072674, -23943.009846569283, 67925.34207407739, -14078.0227277306, -2183.988950728053, -26273.402723479598, -16564.810760594697, -98490.88323007623, -0.092, -0.292, 0.916, 192.0, 0.0, 0.0, 0.0, 0.0, 0.0, 0.0, 0.0, 0.0, 0.0, 1.696996042736447E9, 0.0, 2023-10-10 20:47:22.736
186.0, -58476.4550300187, -23939.590029667623, 67910.99225413708, -14077.665099819316, -2189.0404449749526, -26261.265726240366, -16553.053743011205, -98465.67046233064, -0.092, -0.292, 0.916, 192.0, 0.0, 0.0, 0.0, 0.0, 0.0, 0.0, 0.0, 0.0, 0.0, 1.696996042744622E9, 0.0, 2023-10-10 20:47:22.744
187.0, -58503.075957664965, -23958.924288621463, 67892.08267832789, -14099.011015774133, -2212.9121080532204, -26273.06744731277, -16565.190740250437, -98465.26813093045, -0.092, -0.292, 0.916, 192.0, 0.0, 0.0, 0.0, 0.0, 0.0, 0.0, 0.0, 0.0, 0.0, 1.69699604274465E9, 0.0, 2023-10-10 20:47:22.744
188.0, -58488.21204760219, -23939.277105245248, 67909.33822504738, -14080.324957409497, -2203.0996922373406, -26248.704045856484, -16537.18400444794, -98426.7784269784, -0.092, -0.292, 0.916, 192.0, 0.0, 0.0, 0.0, 0.0, 0.0, 0.0, 0.0, 0.0, 0.0, 1.696996042751904E9, 0.0, 2023-10-10 20:47:22.751
189.0, -58480.88067542085, -23922.043910270204, 67901.87274239931, -14065.1704746688, -2198.2270119460836, -26224.76532754485, -16508.998454689798, -98387.79698464835, -0.092, -0.292, 0.916, 192.0, 0.0, 0.0, 0.0, 0.0, 0.0, 0.0, 0.0, 0.0, 0.0, 1.696996042758407E9, 0.0, 2023-10-10 20:47:22.758
190.0, -58481.90885566579, -23915.07016600015, 67897.69296618616, -14056.676811775782, -2196.707093323123, -26210.348452371178, -16489.172457357938, -98356.83981857775, -0.092, -0.292, 0.916, 192.0, 0.0, 0.0, 0.0, 0.0, 0.0, 0.0, 0.0, 0.0, 0.0, 1.696996042758443E9, 0.0, 2023-10-10 20:47:22.758
191.0, -58509.73677751265, -23935.566715665667, 67878.38105897678, -14074.0217654731, -2219.550576156447, -26223.021891477336, -16499.029576662728, -98354.42583017658, -0.092, -0.292, 0.916, 192.0, 0.0, 0.0, 0.0, 0.0, 0.0, 0.0, 0.0, 0.0, 0.0, 1.696996042767754E9, 0.0, 2023-10-10 20:47:22.767
192.0, -58498.449146562714, -23918.221761968347, 67891.81445739442, -14052.765256496103, -2208.6429248622567, -26199.23963537689, -16471.82750366062, -98314.68442853504, -0.11, -0.28, 0.902, 192.0, 252.0, 144.0, 247.0, 64.0, 28.0, 48.0, 0.0, 0.0, 0.0, 1.696996042767811E9, 0.0, 2023-10-10 20:47:22.767
193.0, -58509.1109286679, -23922.803869581687, 67875.09535254184, -14055.961555953212, -2221.0034395460416, -26197.89853070957, -16466.999526858275, -98296.62421901515, -0.11, -0.28, 0.902, 192.0, 0.0, 0.0, 0.0, 0.0, 0.0, 0.0, 0.0, 0.0, 0.0, 1.696996042774181E9, 0.0, 2023-10-10 20:47:22.774
194.0, -58517.04579794953, -23924.234381226826, 67866.98166930457, -14059.0684484325, -2231.1287797842956, -26198.077344665213, -16461.478645977815, -98283.3472828087, -0.11, -0.28, 0.902, 192.0, 0.0, 0.0, 0.0, 0.0, 0.0, 0.0, 0.0, 0.0, 0.0, 1.696996042774228E9, 0.0, 2023-10-10 20:47:22.774
195.0, -58511.34610311343, -23913.326729932636, 67874.04482055244, -14048.227852371676, -2225.1385122702736, -26180.55357701225, -16439.596288156066, -98253.6418144276, -0.11, -0.28, 0.902, 192.0, 0.0, 0.0, 0.0, 0.0, 0.0, 0.0, 0.0, 0.0, 0.0, 1.696996042781224E9, 0.0, 2023-10-10 20:47:22.781
196.0, -58505.15466989931, -23896.361755891056, 67874.84948335284, -14027.954820150713, -2215.9742970435973, -26151.809233642725, -16408.30384591864, -98210.70411332896, -0.11, -0.28, 0.902, 192.0, 0.0, 0.0, 0.0, 0.0, 0.0, 0.0, 0.0, 0.0, 0.0, 1.696996042781247E9, 0.0, 2023-10-10 20:47:22.781
197.0, -58514.83297524846, -23890.706764543866, 67865.79702684845, -14019.930543891258, -2218.857672078332, -26133.45845144492, -16388.679014286878, -98178.15997340203, -0.11, -0.28, 0.902, 192.0, 0.0, 0.0, 0.0, 0.0, 0.0, 0.0, 0.0, 0.0, 0.0, 1.696996042788709E9, 0.0, 2023-10-10 20:47:22.788
198.0, -58510.3626263574, -23870.903118956463, 67875.22946300858, -13995.790659879525, -2205.804253316433, -26099.237930683845, -16352.357429547004, -98128.78496990025, -0.11, -0.28, 0.902, 192.0, 0.0, 0.0, 0.0, 0.0, 0.0, 0.0, 0.0, 0.0, 0.0, 1.696996042788823E9, 0.0, 2023-10-10 20:47:22.788
199.0, -58525.89708875383, -23865.42694156491, 67859.80675933442, -13992.124973788856, -2209.2687737070055, -26084.016392709782, -16333.671371182369, -98096.64316137352, -0.11, -0.28, 0.902, 192.0, 0.0, 0.0, 0.0, 0.0, 0.0, 0.0, 0.0, 0.0, 0.0, 1.696996042796731E9, 0.0, 2023-10-10 20:47:22.796
200.0, -58554.172045489795, -23875.753447503263, 67841.34421841434, -14003.546715205517, -2227.731314627089, -26089.380811379055, -16336.063007839086, -98084.64027460103, -0.11, -0.28, 0.902, 192.0, 0.0, 0.0, 0.0, 0.0, 0.0, 0.0, 0.0, 0.0, 0.0, 1.696996042796754E9, 0.0, 2023-10-10 20:47:22.796
201.0, -58565.102048528446, -23872.803017235165, 67839.08669222436, -13999.232828525643, -2230.5029309395472, -26076.148578661512, -16322.853126865999, -98058.33227137712, -0.11, -0.28, 0.902, 192.0, 0.0, 0.0, 0.0, 0.0, 0.0, 0.0, 0.0, 0.0, 0.0, 1.696996042804727E9, 0.0, 2023-10-10 20:47:22.804
202.0, -58550.08167625448, -23838.426034262902, 67861.52784365747, -13966.040488009512, -2210.0063812740304, -26031.221572306345, -16277.434382132815, -97998.74252065927, -0.106, -0.256, 0.926, 192.0, 252.0, 176.0, 248.0, 0.0, 28.0, 240.0, 0.0, 0.0, 0.0, 1.69699604280475E9, 0.0, 2023-10-10 20:47:22.804
203.0, -58556.98836529117, -23828.323045769102, 67858.30919245591, -13954.641098337306, -2209.536994640469, -26008.758069128762, -16255.082637677508, -97958.621139362, -0.106, -0.256, 0.926, 192.0, 0.0, 0.0, 0.0, 0.0, 0.0, 0.0, 0.0, 0.0, 0.0, 1.69699604281092E9, 0.0, 2023-10-10 20:47:22.810
204.0, -58577.529618445595, -23831.96638011532, 67840.98659050305, -13955.62457509334, -2217.4495121776476, -25995.95051955587, -16242.722122993724, -97928.37922911397, -0.106, -0.256, 0.926, 192.0, 0.0, 0.0, 0.0, 0.0, 0.0, 0.0, 0.0, 0.0, 0.0, 1.696996042818533E9, 0.0, 2023-10-10 20:47:22.818
205.0, -58622.32251433403, -23858.274383339212, 67820.06535769289, -13981.262025983577, -2247.8031811479545, -26013.541342442197, -16258.614213301447, -97932.13432218246, -0.106, -0.256, 0.926, 192.0, 0.0, 0.0, 0.0, 0.0, 0.0, 0.0, 0.0, 0.0, 0.0, 1.696996042818592E9, 0.0, 2023-10-10 20:47:22.818
206.0, -58615.66169448635, -23832.14519407096, 67837.29855266793, -13956.451589638185, -2230.4582274506365, -25980.483112392798, -16221.465614016726, -97884.99449312621, -0.106, -0.256, 0.926, 192.0, 0.0, 0.0, 0.0, 0.0, 0.0, 0.0, 0.0, 0.0, 0.0, 1.696996042826454E9, 0.0, 2023-10-10 20:47:22.826
207.0, -58625.630572513415, -23817.661263663922, 67832.64938982122, -13943.867557509848, -2224.803236103444, -25954.823309758107, -16194.44235497026, -97844.44842868429, -0.106, -0.256, 0.926, 192.0, 0.0, 0.0, 0.0, 0.0, 0.0, 0.0, 0.0, 0.0, 0.0, 1.696996042826488E9, 0.0, 2023-10-10 20:47:22.826
208.0, -58613.89590667438, -23781.294975435136, 67848.9661632736, -13908.931780926203, -2201.4233114031927, -25904.68834694485, -16144.329743901462, -97777.34849182946, -0.106, -0.256, 0.926, 192.0, 0.0, 0.0, 0.0, 0.0, 0.0, 0.0, 0.0, 0.0, 0.0, 1.696996042833504E9, 0.0, 2023-10-10 20:47:22.833
209.0, -58643.869595988945, -23785.608862115012, 67823.19460191664, -13912.977446672612, -2215.415503432215, -25894.764172406696, -16133.66796179628, -97749.18529381577, -0.106, -0.256, 0.926, 192.0, 0.0, 0.0, 0.0, 0.0, 0.0, 0.0, 0.0, 0.0, 0.0, 1.696996042833532E9, 0.0, 2023-10-10 20:47:22.833
210.0, -58709.13668979844, -23827.361920757525, 67791.14220036771, -13952.696496569693, -2257.63794870829, -25930.83988795756, -16164.692183100247, -97770.08417488149, -0.106, -0.256, 0.926, 192.0, 0.0, 0.0, 0.0, 0.0, 0.0, 0.0, 0.0, 0.0, 0.0, 1.696996042840972E9, 0.0, 2023-10-10 20:47:22.840
211.0, -58705.94039034133, -23804.60784490202, 67815.72911926855, -13928.80248174697, -2241.5223409560135, -25901.40264050992, -16128.996447205122, -97724.50896793712, -0.112, -0.252, 0.9380000000000001, 192.0, 252.0, 128.0, 248.0, 32.0, 29.0, 80.0, 0.0, 0.0, 0.0, 1.696996042840994E9, 0.0, 2023-10-10 20:47:22.840
212.0, -58707.88499210894, -23784.26775744769, 67817.56196231389, -13908.864725692836, -2231.7546286290444, -25868.590279649532, -16093.971263643654, -97674.3516533794, -0.112, -0.252, 0.9380000000000001, 192.0, 0.0, 0.0, 0.0, 0.0, 0.0, 0.0, 0.0, 0.0, 0.0, 1.696996042848989E9, 0.0, 2023-10-10 20:47:22.848
213.0, -58745.324164071586, -23797.120010509494, 67801.28989235043, -13919.2359351201, -2250.7312596716, -25870.22195699477, -16095.200609588697, -97659.17481889426, -0.112, -0.252, 0.9380000000000001, 192.0, 0.0, 0.0, 0.0, 0.0, 0.0, 0.0, 0.0, 0.0, 0.0, 1.696996042849166E9, 0.0, 2023-10-10 20:47:22.849
214.0, -58745.12299837149, -23771.460207874803, 67818.97012221458, -13895.341920297376, -2232.335773984882, -25835.532049600133, -16060.041315560498, -97607.22936478011, -0.112, -0.252, 0.9380000000000001, 192.0, 0.0, 0.0, 0.0, 0.0, 0.0, 0.0, 0.0, 0.0, 0.0, 1.696996042856986E9, 0.0, 2023-10-10 20:47:22.856
215.0, -58757.30469909963, -23754.56228906659, 67810.02942443245, -13880.522713723507, -2226.3008029819493, -25803.77022072914, -16031.565193124437, -97557.45202987814, -0.112, -0.252, 0.9380000000000001, 192.0, 0.0, 0.0, 0.0, 0.0, 0.0, 0.0, 0.0, 0.0, 0.0, 1.696996042857015E9, 0.0, 2023-10-10 20:47:22.857
216.0, -58808.02080726872, -23776.824626544076, 67783.36379329728, -13906.070757635924, -2256.4533062521587, -25816.577770302032, -16047.099655520877, -97556.17798044419, -0.112, -0.252, 0.9380000000000001, 192.0, 0.0, 0.0, 0.0, 0.0, 0.0, 0.0, 0.0, 0.0, 0.0, 1.696996042863592E9, 0.0, 2023-10-10 20:47:22.863
217.0, -58829.143205778986, -23775.08119047656, 67783.18497934163, -13907.165993114233, -2260.9683586321307, -25808.397031831388, -16035.36498968184, -97530.80875048743, -0.112, -0.252, 0.9380000000000001, 192.0, 0.0, 0.0, 0.0, 0.0, 0.0, 0.0, 0.0, 0.0, 0.0, 1.696996042863615E9, 0.0, 2023-10-10 20:47:22.863
218.0, -58825.67868538841, -23750.047236686616, 67798.4065173157, -13883.60725445834, -2242.6175764343234, -25772.164854069335, -15996.227085140597, -97476.00227308301, -0.112, -0.252, 0.9380000000000001, 192.0, 0.0, 0.0, 0.0, 0.0, 0.0, 0.0, 0.0, 0.0, 0.0, 1.696996042870624E9, 0.0, 2023-10-10 20:47:22.870
219.0, -58844.565909453144, -23743.833451728042, 67793.84676144681, -13873.88424562028, -2244.5174747130245, -25754.015237571628, -15977.585730264871, -97438.80897030939, -0.112, -0.252, 0.9380000000000001, 192.0, 0.0, 0.0, 0.0, 0.0, 0.0, 0.0, 0.0, 0.0, 0.0, 1.696996042878661E9, 0.0, 2023-10-10 20:47:22.878
220.0, -58824.69520863238, -23697.095954071996, 67813.29277912293, -13824.68805607415, -2209.604049873835, -25696.817123510496, -15915.20201149011, -97358.230931548, -0.112, -0.252, 0.9380000000000001, 192.0, 0.0, 0.0, 0.0, 0.0, 0.0, 0.0, 0.0, 0.0, 0.0, 1.696996042878685E9, 0.0, 2023-10-10 20:47:22.878
221.0, -58866.403563785985, -23705.07552684254, 67776.39004902722, -13834.522823634485, -2228.893605338765, -25692.480885086166, -15911.20104923261, -97334.44867544755, -0.13, -0.262, 0.924, 192.0, 251.0, 240.0, 247.0, 208.0, 28.0, 224.0, 0.0, 0.0, 0.0, 1.696996042886658E9, 0.0, 2023-10-10 20:47:22.886
222.0, -58903.82038400417, -23711.73634669022, 67765.70591517758, -13844.581108639373, -2241.678803167201, -25691.13978041885, -15909.234095720542, -97315.94143103856, -0.13, -0.262, 0.924, 192.0, 0.0, 0.0, 0.0, 0.0, 0.0, 0.0, 0.0, 0.0, 0.0, 1.69699604288668E9, 0.0, 2023-10-10 20:47:22.886
223.0, -58921.075930723666, -23701.70041342979, 67771.76323792497, -13838.590841125351, -2241.2988235114603, -25673.258384854602, -15888.37991814374, -97278.74812826492, -0.13, -0.262, 0.924, 192.0, 0.0, 0.0, 0.0, 0.0, 0.0, 0.0, 0.0, 0.0, 0.0, 1.696996042893331E9, 0.0, 2023-10-10 20:47:22.893
224.0, -58933.302334940716, -23687.50705570067, 67773.93135713713, -13825.380960152264, -2236.6720124092117, -25651.152509588304, -15861.311955608364, -97234.6481364546, -0.13, -0.262, 0.924, 192.0, 0.0, 0.0, 0.0, 0.0, 0.0, 0.0, 0.0, 0.0, 0.0, 1.696996042893364E9, 0.0, 2023-10-10 20:47:22.893
225.0, -58951.697820627436, -23679.572186419035, 67770.17626406864, -13819.904782760714, -2237.2755095095054, -25632.578209945943, -15841.351847809774, -97197.32072321424, -0.13, -0.262, 0.924, 192.0, 0.0, 0.0, 0.0, 0.0, 0.0, 0.0, 0.0, 0.0, 0.0, 1.696996042901364E9, 0.0, 2023-10-10 20:47:22.901
226.0, -58962.0690300547, -23661.511976899146, 67774.22192981504, -13802.44807034112, -2230.301765239449, -25604.727936354633, -15811.311103261842, -97148.99625170187, -0.13, -0.262, 0.924, 192.0, 0.0, 0.0, 0.0, 0.0, 0.0, 0.0, 0.0, 0.0, 0.0, 1.696996042901391E9, 0.0, 2023-10-10 20:47:22.901
227.0, -58979.235169796375, -23649.24086919318, 67768.49988323449, -13790.176962635156, -2229.4300472056925, -25580.275127920526, -15787.93117856159, -97103.6222104576, -0.13, -0.262, 0.924, 192.0, 0.0, 0.0, 0.0, 0.0, 0.0, 0.0, 0.0, 0.0, 0.0, 1.696996042909472E9, 0.0, 2023-10-10 20:47:22.909
228.0, -59015.847327214164, -23661.243755965683, 67749.7914731254, -13802.135145918744, -2247.7137741701335, -25584.186683200205, -15793.519114675417, -97087.93128584998, -0.13, -0.262, 0.924, 192.0, 0.0, 0.0, 0.0, 0.0, 0.0, 0.0, 0.0, 0.0, 0.0, 1.696996042909705E9, 0.0, 2023-10-10 20:47:22.909
229.0, -59009.365321322126, -23635.00280797515, 67761.30262151988, -13775.24599733901, -2229.8547303503433, -25548.803871727454, -15756.21405317951, -97033.43773286793, -0.13, -0.262, 0.924, 192.0, 0.0, 0.0, 0.0, 0.0, 0.0, 0.0, 0.0, 0.0, 0.0, 1.696996042917389E9, 0.0, 2023-10-10 20:47:22.917
230.0, -59037.595574569175, -23635.807470775544, 67744.89644108969, -13776.29652932841, -2240.740029900078, -25540.153746623248, -15744.188814662555, -97006.59328777711, -0.13, -0.262, 0.924, 192.0, 0.0, 0.0, 0.0, 0.0, 0.0, 0.0, 0.0, 0.0, 0.0, 1.69699604291743E9, 0.0, 2023-10-10 20:47:22.917
231.0, -59073.2913104643, -23646.022217991616, 67734.97226655153, -13789.886389957237, -2259.82841966491, -25545.451110059155, -15745.239346651953, -96994.52334577125, -0.138, -0.25, 0.918, 192.0, 251.0, 176.0, 248.0, 48.0, 28.0, 176.0, 0.0, 0.0, 0.0, 1.69699604292399E9, 0.0, 2023-10-10 20:47:22.923
232.0, -59086.70235713749, -23643.34000865698, 67734.21230724006, -13787.91943644517, -2265.215190078639, -25535.28106633199, -15729.146090644133, -96965.44372623488, -0.138, -0.25, 0.918, 192.0, 0.0, 0.0, 0.0, 0.0, 0.0, 0.0, 0.0, 0.0, 0.0, 1.696996042924016E9, 0.0, 2023-10-10 20:47:22.924
233.0, -59105.88015388014, -23646.96099125874, 67723.41641466814, -13791.629826024751, -2276.279303584016, -25530.900124418753, -15719.82541320627, -96942.60024340157, -0.138, -0.25, 0.918, 192.0, 0.0, 0.0, 0.0, 0.0, 0.0, 0.0, 0.0, 0.0, 0.0, 1.696996042931016E9, 0.0, 2023-10-10 20:47:22.931
234.0, -59109.188212059526, -23632.857040507442, 67729.31727520433, -13775.827142694849, -2271.8536581818653, -25510.135353819773, -15692.735098926438, -96905.11636795002, -0.138, -0.25, 0.918, 192.0, 0.0, 0.0, 0.0, 0.0, 0.0, 0.0, 0.0, 0.0, 0.0, 1.696996042931045E9, 0.0, 2023-10-10 20:47:22.931
235.0, -59106.528354469345, -23609.544171040558, 67731.84302232778, -13753.810674406372, -2259.761364431544, -25475.601908636323, -15656.86054907567, -96852.8132859246, -0.138, -0.25, 0.918, 192.0, 0.0, 0.0, 0.0, 0.0, 0.0, 0.0, 0.0, 0.0, 0.0, 1.696996042939124E9, 0.0, 2023-10-10 20:47:22.939
236.0, -59130.66823848108, -23617.859019977932, 67715.0792139863, -13760.87382565425, -2275.2287715946163, -25470.505710900514, -15652.613717629161, -96832.16027404788, -0.138, -0.25, 0.918, 192.0, 0.0, 0.0, 0.0, 0.0, 0.0, 0.0, 0.0, 0.0, 0.0, 1.696996042945533E9, 0.0, 2023-10-10 20:47:22.945
237.0, -59141.53118628636, -23613.992168187164, 67707.63608308269, -13753.609508706273, -2277.9780361626194, -25455.61944909328, -15634.017066242346, -96799.16909923186, -0.138, -0.25, 0.918, 192.0, 0.0, 0.0, 0.0, 0.0, 0.0, 0.0, 0.0, 0.0, 0.0, 1.696996042945557E9, 0.0, 2023-10-10 20:47:22.945
238.0, -59134.37862806066, -23586.47717076268, 67718.61078961025, -13729.156700272168, -2263.7176232001334, -25416.414489318668, -15594.052147156257, -96744.02734566061, -0.138, -0.25, 0.918, 192.0, 0.0, 0.0, 0.0, 0.0, 0.0, 0.0, 0.0, 0.0, 0.0, 1.696996042953545E9, 0.0, 2023-10-10 20:47:22.953
239.0, -59146.873253211175, -23579.726943937178, 67707.83724878279, -13721.825328090827, -2267.49506801308, -25396.856712920275, -15573.913225402026, -96708.2198510432, -0.138, -0.25, 0.918, 192.0, 0.0, 0.0, 0.0, 0.0, 0.0, 0.0, 0.0, 0.0, 0.0, 1.696996042953567E9, 0.0, 2023-10-10 20:47:22.953
240.0, -59136.05500889481, -23553.173071524274, 67721.80708906736, -13695.89730452267, -2251.2677015385275, -25358.568174668333, -15532.69660862644, -96649.4124113813, -0.138, -0.25, 0.918, 192.0, 0.0, 0.0, 0.0, 0.0, 0.0, 0.0, 0.0, 0.0, 0.0, 1.696996042961637E9, 0.0, 2023-10-10 20:47:22.961
241.0, -59142.02292466437, -23539.449100428716, 67709.75949880594, -13685.302577650855, -2250.1948178046728, -25331.83548829979, -15505.44983213542, -96599.36685554587, -0.16, -0.254, 0.916, 192.0, 251.0, 0.0, 248.0, 16.0, 28.0, 160.0, 0.0, 0.0, 0.0, 1.69699604296166E9, 0.0, 2023-10-10 20:47:22.961
242.0, -59162.117142929696, -23543.94180106423, 67700.05884171234, -13691.605769587251, -2258.5096667420466, -25321.553685850347, -15495.16802968598, -96568.7449656421, -0.16, -0.254, 0.916, 192.0, 0.0, 0.0, 0.0, 0.0, 0.0, 0.0, 0.0, 0.0, 0.0, 1.696996042968802E9, 0.0, 2023-10-10 20:47:22.968
243.0, -59188.96158802052, -23557.218737270683, 67684.6808415271, -13706.022644760926, -2275.608751250357, -25324.168839951617, -15497.514962853786, -96550.95297705567, -0.16, -0.254, 0.916, 192.0, 0.0, 0.0, 0.0, 0.0, 0.0, 0.0, 0.0, 0.0, 0.0, 1.696996042968962E9, 0.0, 2023-10-10 20:47:22.968
244.0, -59216.38717846718, -23572.350868266927, 67665.34658257326, -13719.85837457876, -2299.346303861893, -25335.30000869036, -15504.198134445924, -96542.86164556285, -0.16, -0.254, 0.916, 192.0, 0.0, 0.0, 0.0, 0.0, 0.0, 0.0, 0.0, 0.0, 0.0, 1.696996042976333E9, 0.0, 2023-10-10 20:47:22.976
245.0, -59215.00137031095, -23564.75127515212, 67676.63421352318, -13709.353054684765, -2298.6533997837782, -25318.424441626605, -15484.707413280896, -96510.026932958, -0.16, -0.254, 0.916, 192.0, 0.0, 0.0, 0.0, 0.0, 0.0, 0.0, 0.0, 0.0, 0.0, 1.696996042976366E9, 0.0, 2023-10-10 20:47:22.976
246.0, -59179.037413482365, -23517.857315284888, 67697.7789637779, -13662.749667495451, -2263.49410575558, -25257.00184786342, -15422.077825317125, -96427.54899591792, -0.16, -0.254, 0.916, 192.0, 0.0, 0.0, 0.0, 0.0, 0.0, 0.0, 0.0, 0.0, 0.0, 1.696996042984373E9, 0.0, 2023-10-10 20:47:22.984
247.0, -59163.301785385825, -23486.45311432518, 67697.57779807781, -13632.910088647615, -2245.1433235577733, -25206.64336760561, -15372.434600881888, -96358.81738171785, -0.16, -0.254, 0.916, 192.0, 0.0, 0.0, 0.0, 0.0, 0.0, 0.0, 0.0, 0.0, 0.0, 1.696996042984407E9, 0.0, 2023-10-10 20:47:22.984
248.0, -59176.37755589218, -23483.21211137916, 67674.15316988864, -13634.765283437406, -2255.089849840385, -25186.012707473365, -15355.044943695659, -96320.73000916601, -0.16, -0.254, 0.916, 192.0, 0.0, 0.0, 0.0, 0.0, 0.0, 0.0, 0.0, 0.0, 0.0, 1.696996042992158E9, 0.0, 2023-10-10 20:47:22.992
249.0, -59198.79635558085, -23495.974957463142, 67654.8189109348, -13650.500911533942, -2278.469774540636, -25187.55497784078, -15357.74950477475, -96303.80973861334, -0.16, -0.254, 0.916, 192.0, 0.0, 0.0, 0.0, 0.0, 0.0, 0.0, 0.0, 0.0, 0.0, 1.696996042992184E9, 0.0, 2023-10-10 20:47:22.992
250.0, -59173.33771864626, -23462.26852682454, 67670.71100124253, -13619.923725119083, -2258.934349886698, -25141.957419151953, -15310.095585596036, -96236.08395291376, -0.184, -0.25, 0.902, 192.0, 250.0, 64.0, 248.0, 48.0, 28.0, 48.0, 0.0, 0.0, 0.0, 1.69699604299949E9, 0.0, 2023-10-10 20:47:22.999
251.0, -59192.69432934455, -23471.65625949577, 67648.29220155385, -13631.189004324557, -2277.1063181288623, -25136.145965593572, -15305.513477982699, -96208.97128688947, -0.184, -0.25, 0.902, 192.0, 0.0, 0.0, 0.0, 0.0, 0.0, 0.0, 0.0, 0.0, 0.0, 1.696996043014801E9, 0.0, 2023-10-10 20:47:23.014
252.0, -59200.986826537475, -23474.718448486146, 67644.93943988555, -13631.814853169306, -2285.7787949775216, -25129.418090512525, -15296.617483689486, -96181.25512376489, -0.184, -0.25, 0.902, 192.0, 0.0, 0.0, 0.0, 0.0, 0.0, 0.0, 0.0, 0.0, 0.0, 1.696996043014833E9, 0.0, 2023-10-10 20:47:23.014
253.0, -59176.779887292374, -23442.107253325852, 67651.28733531086, -13598.220181252978, -2264.052899366963, -25080.15484573303, -15249.58941335552, -96110.24363163038, -0.184, -0.25, 0.902, 192.0, 0.0, 0.0, 0.0, 0.0, 0.0, 0.0, 0.0, 0.0, 0.0, 1.696996043014845E9, 0.0, 2023-10-10 20:47:23.014
254.0, -59162.09479118524, -23415.240456490574, 67651.15322484414, -13572.44861989601, -2250.463038738136, -25035.943095200433, -15209.44568031379, -96041.24379649686, -0.184, -0.25, 0.902, 192.0, 0.0, 0.0, 0.0, 0.0, 0.0, 0.0, 0.0, 0.0, 0.0, 1.696996043014857E9, 0.0, 2023-10-10 20:47:23.014
255.0, -59173.76240179091, -23412.178267500196, 67630.43315773406, -13572.761544318384, -2260.8118964209434, -25016.586484502135, -15194.805287695563, -95999.08840645415, -0.184, -0.25, 0.902, 192.0, 0.0, 0.0, 0.0, 0.0, 0.0, 0.0, 0.0, 0.0, 0.0, 1.696996043022021E9, 0.0, 2023-10-10 20:47:23.022
0.0, -59195.868277057205, -23424.49407869507, 67613.5128871814, -13586.999605536415, -2278.6262367518234, -25016.94411241342, -15196.615778996442, -95980.11177541158, -0.184, -0.25, 0.902, 192.0, 0.0, 0.0, 0.0, 0.0, 0.0, 0.0, 0.0, 0.0, 0.0, 1.696996043022057E9, 0.0, 2023-10-10 20:47:23.022
1.0, -59219.024684312906, -23445.392959760782, 67593.3069101938, -13607.451451713021, -2305.157757420273, -25024.34253982813, -15203.813040711051, -95968.86884795057, -0.184, -0.25, 0.902, 192.0, 0.0, 0.0, 0.0, 0.0, 0.0, 0.0, 0.0, 0.0, 0.0, 1.69699604302844E9, 0.0, 2023-10-10 20:47:23.028
2.0, -59214.7778528664, -23441.190831803186, 67599.69950910802, -13600.477707442966, -2308.398760366292, -25007.355214042094, -15183.025918367615, -95933.66485043346, -0.184, -0.25, 0.902, 192.0, 0.0, 0.0, 0.0, 0.0, 0.0, 0.0, 0.0, 0.0, 0.0, 1.696996043028463E9, 0.0, 2023-10-10 20:47:23.028
3.0, -59195.6224078682, -23417.185058258183, 67609.3554627127, -13575.26493969738, -2297.4240538387367, -24967.256184489273, -15141.563432403022, -95873.60571308204, -0.184, -0.25, 0.902, 192.0, 0.0, 0.0, 0.0, 0.0, 0.0, 0.0, 0.0, 0.0, 0.0, 1.696996043036471E9, 0.0, 2023-10-10 20:47:23.036
4.0, -59200.53979164837, -23414.68166287919, 67599.25247421891, -13571.532198373343, -2305.828309753932, -24949.50889939176, -15121.871545537895, -95832.81377945111, -0.188, -0.24, 0.9, 192.0, 250.0, 32.0, 248.0, 128.0, 28.0, 32.0, 0.0, 0.0, 0.0, 1.696996043036497E9, 0.0, 2023-10-10 20:47:23.036
5.0, -59195.39889042365, -23399.661290605225, 67597.21846547347, -13556.221253421458, -2302.542603319002, -24918.864657743536, -15091.160248656304, -95780.60010440352, -0.188, -0.24, 0.9, 192.0, 0.0, 0.0, 0.0, 0.0, 0.0, 0.0, 0.0, 0.0, 0.0, 1.696996043045817E9, 0.0, 2023-10-10 20:47:23.045
6.0, -59189.788602565364, -23383.076296219388, 67591.51877063737, -13540.776198002839, -2297.8487369833874, -24887.88513992848, -15058.526701751556, -95726.30771712157, -0.188, -0.24, 0.9, 192.0, 0.0, 0.0, 0.0, 0.0, 0.0, 0.0, 0.0, 0.0, 0.0, 1.696996043045838E9, 0.0, 2023-10-10 20:47:23.045
7.0, -59186.23467519697, -23366.558357066915, 67589.01537525837, -13526.091101895703, -2292.819594480943, -24853.55286044513, -15024.239125757114, -95667.90260885986, -0.188, -0.24, 0.9, 192.0, 0.0, 0.0, 0.0, 0.0, 0.0, 0.0, 0.0, 0.0, 0.0, 1.696996043052363E9, 0.0, 2023-10-10 20:47:23.052
8.0, -59213.05676854334, -23379.902348506734, 67576.00665998539, -13539.591555546709, -2313.025571468541, -24851.183575532865, -15021.02047455555, -95642.44397192526, -0.188, -0.24, 0.9, 192.0, 0.0, 0.0, 0.0, 0.0, 0.0, 0.0, 0.0, 0.0, 0.0, 1.696996043052406E9, 0.0, 2023-10-10 20:47:23.052
9.0, -59218.48824244598, -23372.10158969183, 67579.58293909824, -13534.227136877435, -2315.685429058722, -24833.123366012976, -14999.316930689447, -95602.1661284168, -0.188, -0.24, 0.9, 192.0, 0.0, 0.0, 0.0, 0.0, 0.0, 0.0, 0.0, 0.0, 0.0, 1.696996043058344E9, 0.0, 2023-10-10 20:47:23.058
10.0, -59226.33370474979, -23367.29596463394, 67572.43038087254, -13529.980305430927, -2321.407475639281, -24820.226409462262, -14980.072078713427, -95562.22356107517, -0.188, -0.24, 0.9, 192.0, 0.0, 0.0, 0.0, 0.0, 0.0, 0.0, 0.0, 0.0, 0.0, 1.69699604306612E9, 0.0, 2023-10-10 20:47:23.066
11.0, -59228.21125128404, -23359.450502330128, 67567.60240407019, -13521.218421604446, -2324.0673332294623, -24801.875627264457, -14955.10518015685, -95517.85534833137, -0.188, -0.24, 0.9, 192.0, 0.0, 0.0, 0.0, 0.0, 0.0, 0.0, 0.0, 0.0, 0.0, 1.696996043066145E9, 0.0, 2023-10-10 20:47:23.066
12.0, -59227.29482976137, -23350.62156327028, 67570.5975378272, -13510.310770310256, -2322.9944494956076, -24777.75809499718, -14927.925458899195, -95470.5814088084, -0.188, -0.24, 0.9, 192.0, 0.0, 0.0, 0.0, 0.0, 0.0, 0.0, 0.0, 0.0, 0.0, 1.696996043074181E9, 0.0, 2023-10-10 20:47:23.074
13.0, -59206.798280095856, -23320.51376348898, 67582.48866587742, -13482.549903696765, -2301.5144230740575, -24732.160536308354, -14878.148123997227, -95398.25116375103, -0.188, -0.24, 0.9, 192.0, 0.0, 0.0, 0.0, 0.0, 0.0, 0.0, 0.0, 0.0, 0.0, 1.696996043074203E9, 0.0, 2023-10-10 20:47:23.074
14.0, -59195.84592531275, -23294.585739920825, 67582.71218332199, -13462.075705775704, -2289.3997775792814, -24691.726230588705, -14834.897498476208, -95329.67601176215, -0.2, -0.234, 0.908, 192.0, 249.0, 192.0, 248.0, 176.0, 28.0, 96.0, 0.0, 0.0, 0.0, 1.696996043080744E9, 0.0, 2023-10-10 20:47:23.080
15.0, -59223.18210878159, -23308.153248805196, 67560.33808712222, -13477.543112938776, -2314.1208069468507, -24691.815637566524, -14833.17641415315, -95304.08326436083, -0.2, -0.234, 0.908, 192.0, 0.0, 0.0, 0.0, 0.0, 0.0, 0.0, 0.0, 0.0, 0.0, 1.696996043080774E9, 0.0, 2023-10-10 20:47:23.080
16.0, -59241.21996655702, -23312.467135485073, 67562.12622667864, -13482.415793230033, -2325.6990105747, -24688.149951475854, -14824.16866113766, -95273.34961573478, -0.2, -0.234, 0.908, 192.0, 0.0, 0.0, 0.0, 0.0, 0.0, 0.0, 0.0, 0.0, 0.0, 1.696996043090233E9, 0.0, 2023-10-10 20:47:23.090
17.0, -59246.15970208165, -23300.41954522366, 67556.98532545392, -13474.503275692854, -2325.073161729951, -24665.172358175798, -14796.49720150199, -95222.70056279904, -0.2, -0.234, 0.908, 192.0, 0.0, 0.0, 0.0, 0.0, 0.0, 0.0, 0.0, 0.0, 0.0, 1.696996043090255E9, 0.0, 2023-10-10 20:47:23.090
18.0, -59280.335519353815, -23319.217362310574, 67538.03104615583, -13496.519743981331, -2349.950653308708, -24678.091666470966, -14801.705157960077, -95208.50720506992, -0.2, -0.234, 0.908, 192.0, 0.0, 0.0, 0.0, 0.0, 0.0, 0.0, 0.0, 0.0, 0.0, 1.69699604309698E9, 0.0, 2023-10-10 20:47:23.096
19.0, -59275.574597784835, -23294.675146898648, 67548.692828261, -13475.911435593538, -2337.2772142025487, -24645.92750619978, -14762.075515040819, -95148.44806771852, -0.2, -0.234, 0.908, 192.0, 0.0, 0.0, 0.0, 0.0, 0.0, 0.0, 0.0, 0.0, 0.0, 1.696996043097011E9, 0.0, 2023-10-10 20:47:23.097
20.0, -59283.73298451102, -23280.615899636257, 67549.00575268337, -13465.294356977267, -2337.6348421138337, -24621.944084399234, -14732.615915848723, -95096.52496534884, -0.2, -0.234, 0.908, 192.0, 0.0, 0.0, 0.0, 0.0, 0.0, 0.0, 0.0, 0.0, 0.0, 1.696996043104043E9, 0.0, 2023-10-10 20:47:23.104
21.0, -59273.406478572666, -23253.16795744514, 67559.89105223311, -13438.338153164168, -2322.9273942622417, -24578.738162367128, -14685.52079028139, -95023.61357493563, -0.2, -0.234, 0.908, 192.0, 0.0, 0.0, 0.0, 0.0, 0.0, 0.0, 0.0, 0.0, 0.0, 1.69699604310407E9, 0.0, 2023-10-10 20:47:23.104
22.0, -59275.12756289573, -23233.140794413186, 67551.2409271289, -13421.730807033875, -2313.0926267019067, -24538.66148455876, -14645.891147362132, -94954.14435316854, -0.2, -0.234, 0.908, 192.0, 0.0, 0.0, 0.0, 0.0, 0.0, 0.0, 0.0, 0.0, 0.0, 1.696996043111429E9, 0.0, 2023-10-10 20:47:23.111
23.0, -59329.59876413331, -23266.534300629413, 67522.25071457037, -13457.337135951178, -2350.80001959801, -24559.694476091205, -14664.24192955994, -94946.20948388691, -0.21, -0.234, 0.912, 192.0, 249.0, 112.0, 248.0, 176.0, 28.0, 128.0, 0.0, 0.0, 0.0, 1.696996043111476E9, 0.0, 2023-10-10 20:47:23.111
24.0, -59330.00109553351, -23249.971657988033, 67539.97564792343, -13444.641345100565, -2344.27331021706, -24536.113385690856, -14635.363475723681, -94894.3981402395, -0.21, -0.234, 0.912, 192.0, 0.0, 0.0, 0.0, 0.0, 0.0, 0.0, 0.0, 0.0, 0.0, 1.696996043118542E9, 0.0, 2023-10-10 20:47:23.118
25.0, -59314.91366802617, -23211.794878458368, 67550.61507828416, -13412.633647040564, -2322.860339028876, -24483.765600176528, -14582.12162043114, -94813.39541833347, -0.21, -0.234, 0.912, 192.0, 0.0, 0.0, 0.0, 0.0, 0.0, 0.0, 0.0, 0.0, 0.0, 1.696996043126359E9, 0.0, 2023-10-10 20:47:23.126
26.0, -59344.82030210737, -23214.74530872647, 67533.62775249813, -13417.953362220927, -2337.724249091655, -24473.170873304713, -14568.799980735777, -94773.87753413648, -0.21, -0.234, 0.912, 192.0, 0.0, 0.0, 0.0, 0.0, 0.0, 0.0, 0.0, 0.0, 0.0, 1.696996043126389E9, 0.0, 2023-10-10 20:47:23.126
27.0, -59347.88249109775, -23192.147695082152, 67541.3391043352, -13399.110841645104, -2325.922528019253, -24438.436262421164, -14532.076064595709, -94708.23046067124, -0.21, -0.234, 0.912, 192.0, 0.0, 0.0, 0.0, 0.0, 0.0, 0.0, 0.0, 0.0, 0.0, 1.696996043133498E9, 0.0, 2023-10-10 20:47:23.133
28.0, -59382.885322914764, -23199.434363774584, 67519.27793255782, -13409.75027200583, -2342.239301471627, -24432.088366995857, -14523.135366813585, -94669.98662590822, -0.21, -0.234, 0.912, 192.0, 0.0, 0.0, 0.0, 0.0, 0.0, 0.0, 0.0, 0.0, 0.0, 1.696996043133526E9, 0.0, 2023-10-10 20:47:23.133
29.0, -59417.50817507604, -23209.380890057193, 67515.16521157805, -13423.94362973495, -2360.143048780328, -24431.864849551304, -14520.520212712314, -94642.02459359463, -0.21, -0.234, 0.912, 192.0, 0.0, 0.0, 0.0, 0.0, 0.0, 0.0, 0.0, 0.0, 0.0, 1.696996043141123E9, 0.0, 2023-10-10 20:47:23.141
30.0, -59410.04269242796, -23175.361534996217, 67532.51016527537, -13393.589960764642, -2337.053696757996, -24384.143875139223, -14470.027621987776, -94562.9217699673, -0.21, -0.234, 0.912, 192.0, 0.0, 0.0, 0.0, 0.0, 0.0, 0.0, 0.0, 0.0, 0.0, 1.696996043141147E9, 0.0, 2023-10-10 20:47:23.141
31.0, -59442.54212886598, -23176.792046641356, 67520.14965059157, -13398.216771866892, -2345.3461939509148, -24370.509311021488, -14456.504816592314, -94516.74306592264, -0.21, -0.234, 0.912, 192.0, 0.0, 0.0, 0.0, 0.0, 0.0, 0.0, 0.0, 0.0, 0.0, 1.696996043148986E9, 0.0, 2023-10-10 20:47:23.148
32.0, -59477.14262928279, -23178.803703642334, 67513.42177551053, -13403.93881844745, -2357.214970256683, -24363.088531862322, -14446.558290309704, -94477.58280963694, -0.21, -0.234, 0.912, 192.0, 0.0, 0.0, 0.0, 0.0, 0.0, 0.0, 0.0, 0.0, 0.0, 1.696996043149015E9, 0.0, 2023-10-10 20:47:23.149
33.0, -59481.21064677366, -23151.691037618046, 67527.36926405063, -13381.4082600365, -2343.401592183303, -24325.0905662883, -14401.94420837691, -94404.40319829025, -0.21, -0.242, 0.906, 192.0, 249.0, 112.0, 248.0, 112.0, 28.0, 80.0, 0.0, 0.0, 0.0, 1.696996043156124E9, 0.0, 2023-10-10 20:47:23.156
34.0, -59535.74890324461, -23172.321697750296, 67502.73764166089, -13403.827059725174, -2369.1508017958167, -24335.014740826457, -14408.47091775786, -94379.4810032226, -0.21, -0.242, 0.906, 192.0, 0.0, 0.0, 0.0, 0.0, 0.0, 0.0, 0.0, 0.0, 0.0, 1.696996043156152E9, 0.0, 2023-10-10 20:47:23.156
35.0, -59555.59725232092, -23155.71435162, 67508.95142661946, -13391.958283419406, -2361.2829877475488, -24312.260664970956, -14381.313548244661, -94323.19931068413, -0.21, -0.242, 0.906, 192.0, 0.0, 0.0, 0.0, 0.0, 0.0, 0.0, 0.0, 0.0, 0.0, 1.696996043163727E9, 0.0, 2023-10-10 20:47:23.163
36.0, -59559.73232504515, -23112.843705754723, 67519.8367261692, -13356.195492290914, -2334.6844118457334, -24260.18110039009, -14323.489585338782, -94234.82051310784, -0.21, -0.242, 0.906, 192.0, 0.0, 0.0, 0.0, 0.0, 0.0, 0.0, 0.0, 0.0, 0.0, 1.69699604316375E9, 0.0, 2023-10-10 20:47:23.163
37.0, -59612.951828593235, -23118.006958723898, 67510.60545570916, -13367.773695918762, -2348.922473063764, -24257.90122245565, -14315.912343968434, -94194.69913181057, -0.21, -0.242, 0.906, 192.0, 0.0, 0.0, 0.0, 0.0, 0.0, 0.0, 0.0, 0.0, 0.0, 1.696996043171682E9, 0.0, 2023-10-10 20:47:23.171
38.0, -59667.17716064181, -23128.512278617894, 67500.56952244873, -13384.157524604503, -2367.474420961669, -24267.08778942678, -14314.839460234578, -94163.13846863968, -0.21, -0.242, 0.906, 192.0, 0.0, 0.0, 0.0, 0.0, 0.0, 0.0, 0.0, 0.0, 0.0, 1.696996043171717E9, 0.0, 2023-10-10 20:47:23.171
39.0, -59697.620236589944, -23118.118717446177, 67501.3294817602, -13381.274149569768, -2370.2236855296715, -24256.60482127724, -14294.186448357876, -94114.29990700482, -0.21, -0.242, 0.906, 192.0, 0.0, 0.0, 0.0, 0.0, 0.0, 0.0, 0.0, 0.0, 0.0, 1.696996043180272E9, 0.0, 2023-10-10 20:47:23.180
40.0, -59755.287737284634, -23133.47436588697, 67480.34119371667, -13401.144850390536, -2394.14005209685, -24270.17233016161, -14298.656797248936, -94090.38354043764, -0.21, -0.242, 0.906, 192.0, 0.0, 0.0, 0.0, 0.0, 0.0, 0.0, 0.0, 0.0, 0.0, 1.696996043180327E9, 0.0, 2023-10-10 20:47:23.180
41.0, -59814.363397880006, -23156.563717909303, 67478.7765716048, -13426.178804180481, -2419.3304680979813, -24296.122705474223, -14312.246657877764, -94081.37578742216, -0.21, -0.242, 0.906, 192.0, 0.0, 0.0, 0.0, 0.0, 0.0, 0.0, 0.0, 0.0, 0.0, 1.696996043186372E9, 0.0, 2023-10-10 20:47:23.186
42.0, -59817.224421170285, -23120.7562232919, 67500.99420559338, -13393.03116715326, -2395.1905840862496, -24256.738931743974, -14258.289546762651, -94004.91046964056, -0.21, -0.242, 0.906, 192.0, 0.0, 0.0, 0.0, 0.0, 0.0, 0.0, 0.0, 0.0, 0.0, 1.696996043193332E9, 0.0, 2023-10-10 20:47:23.193
43.0, -59855.42355244441, -23113.514258088384, 67496.56856019123, -13386.862085683595, -2396.3528747979253, -24239.259867579924, -14230.171052237876, -93949.14286722457, -0.188, -0.254, 0.908, 192.0, 250.0, 32.0, 248.0, 16.0, 28.0, 96.0, 0.0, 0.0, 0.0, 1.696996043193381E9, 0.0, 2023-10-10 20:47:23.193
44.0, -59896.573113986626, -23107.523990574362, 67496.61326368013, -13383.88930367104, -2399.4821190216685, -24228.732195941473, -14209.942723505823, -93899.4102358115, -0.188, -0.254, 0.908, 192.0, 0.0, 0.0, 0.0, 0.0, 0.0, 0.0, 0.0, 0.0, 0.0, 1.696996043201297E9, 0.0, 2023-10-10 20:47:23.201
45.0, -59943.71294304287, -23102.33838586073, 67492.92522584501, -13382.03410888125, -2404.555965013023, -24218.02571034738, -14190.921388974357, -93851.91277884398, -0.188, -0.254, 0.908, 192.0, 0.0, 0.0, 0.0, 0.0, 0.0, 0.0, 0.0, 0.0, 0.0, 1.696996043201328E9, 0.0, 2023-10-10 20:47:23.201
46.0, -59990.942179076934, -23093.151818889597, 67494.42279272352, -13376.848504167618, -2403.304267323526, -24203.58648342925, -14166.580339262528, -93797.77685377322, -0.188, -0.254, 0.908, 192.0, 0.0, 0.0, 0.0, 0.0, 0.0, 0.0, 0.0, 0.0, 0.0, 1.696996043209321E9, 0.0, 2023-10-10 20:47:23.209
47.0, -60044.94399368096, -23088.65911825408, 67488.25371125386, -13376.423821022967, -2408.132244125872, -24192.45531469051, -14147.402542519874, -93747.17250432642, -0.188, -0.254, 0.908, 192.0, 0.0, 0.0, 0.0, 0.0, 0.0, 0.0, 0.0, 0.0, 0.0, 1.696996043209352E9, 0.0, 2023-10-10 20:47:23.209
48.0, -60100.26456120784, -23084.47934204094, 67487.31493798672, -13375.21682682238, -2413.697828495244, -24185.97330879847, -14130.594030689483, -93699.7644543367, -0.188, -0.254, 0.908, 192.0, 0.0, 0.0, 0.0, 0.0, 0.0, 0.0, 0.0, 0.0, 0.0, 1.69699604321618E9, 0.0, 2023-10-10 20:47:23.216
49.0, -60147.694962942005, -23070.107170356176, 67486.7337926309, -13366.365536018078, -2410.3227150824923, -24170.26003244639, -14104.978931543701, -93640.66644199687, -0.188, -0.254, 0.908, 192.0, 0.0, 0.0, 0.0, 0.0, 0.0, 0.0, 0.0, 0.0, 0.0, 1.696996043216244E9, 0.0, 2023-10-10 20:47:23.216
50.0, -60195.214771653984, -23053.902155626078, 67488.29841474276, -13356.709582413387, -2406.2994010805373, -24150.031703714336, -14077.575692841494, -93579.69088312279, -0.188, -0.254, 0.908, 192.0, 0.0, 0.0, 0.0, 0.0, 0.0, 0.0, 0.0, 0.0, 0.0, 1.69699604322405E9, 0.0, 2023-10-10 20:47:23.224
51.0, -60270.33898476828, -23066.419132521052, 67473.79213259126, -13373.674556454964, -2426.818302490509, -24157.474834617955, -14075.631091073883, -93547.1243914514, -0.188, -0.254, 0.908, 192.0, 0.0, 0.0, 0.0, 0.0, 0.0, 0.0, 0.0, 0.0, 0.0, 1.696996043224089E9, 0.0, 2023-10-10 20:47:23.224
52.0, -60343.36213390376, -23081.126580372642, 67466.9748505324, -13390.393661307533, -2446.2196166777157, -24171.645840602618, -14077.061602719023, -93521.88927196137, -0.18, -0.26, 0.91, 192.0, 250.0, 96.0, 247.0, 224.0, 28.0, 112.0, 0.0, 0.0, 0.0, 1.696996043231925E9, 0.0, 2023-10-10 20:47:23.231
53.0, -60373.08995402932, -23053.522175970338, 67482.66577514002, -13367.12549532956, -2430.7969130035535, -24140.979247209936, -14034.794453954037, -93451.32481471596, -0.18, -0.26, 0.91, 192.0, 0.0, 0.0, 0.0, 0.0, 0.0, 0.0, 0.0, 0.0, 0.0, 1.69699604323195E9, 0.0, 2023-10-10 20:47:23.231
54.0, -60452.34923986784, -23074.689277969515, 67454.94961201545, -13390.12544037407, -2456.590826104978, -24159.68765731903, -14043.981020925168, -93428.056648738, -0.18, -0.26, 0.91, 192.0, 0.0, 0.0, 0.0, 0.0, 0.0, 0.0, 0.0, 0.0, 0.0, 1.69699604323941E9, 0.0, 2023-10-10 20:47:23.239
55.0, -60484.871028050315, -23048.89536486809, 67477.74839135986, -13363.348050516612, -2437.1224566844057, -24130.295113360302, -14002.920866360768, -93355.32407228042, -0.18, -0.26, 0.91, 192.0, 0.0, 0.0, 0.0, 0.0, 0.0, 0.0, 0.0, 0.0, 0.0, 1.696996043239472E9, 0.0, 2023-10-10 20:47:23.239
56.0, -60544.25961306806, -23039.932315341513, 67465.70080109844, -13359.615309192575, -2438.396506118358, -24115.699424230985, -13977.886912570824, -93299.31060067542, -0.18, -0.26, 0.91, 192.0, 0.0, 0.0, 0.0, 0.0, 0.0, 0.0, 0.0, 0.0, 0.0, 1.696996043245587E9, 0.0, 2023-10-10 20:47:23.245
57.0, -60628.302172220014, -23055.287963782306, 67454.5249288708, -13382.79406819273, -2459.1612767173383, -24127.791717981305, -13982.044337039511, -93273.42728059618, -0.18, -0.26, 0.91, 192.0, 0.0, 0.0, 0.0, 0.0, 0.0, 0.0, 0.0, 0.0, 0.0, 1.696996043253865E9, 0.0, 2023-10-10 20:47:23.253
58.0, -60694.91037069683, -23059.646553951094, 67456.78245506078, -13391.93593167495, -2470.560666389545, -24130.183354638026, -13973.975357291147, -93239.54203600193, -0.18, -0.26, 0.91, 192.0, 0.0, 0.0, 0.0, 0.0, 0.0, 0.0, 0.0, 0.0, 0.0, 1.696996043253905E9, 0.0, 2023-10-10 20:47:23.253
59.0, -60745.559423632556, -23049.163585801554, 67460.53754812927, -13382.816419937184, -2467.4984773991678, -24115.43120329752, -13951.064819224457, -93188.73652085502, -0.18, -0.26, 0.91, 192.0, 0.0, 0.0, 0.0, 0.0, 0.0, 0.0, 0.0, 0.0, 0.0, 1.696996043261667E9, 0.0, 2023-10-10 20:47:23.261
60.0, -60822.717645492274, -23062.61933596365, 67446.79122528926, -13396.339225332646, -2487.547992175578, -24124.707177246473, -13952.76355180306, -93159.32162515183, -0.18, -0.26, 0.91, 192.0, 0.0, 0.0, 0.0, 0.0, 0.0, 0.0, 0.0, 0.0, 0.0, 1.696996043261694E9, 0.0, 2023-10-10 20:47:23.261
61.0, -60908.503640711744, -23087.250958353397, 67431.97201871539, -13419.585039566166, -2516.3817425229245, -24149.472910102955, -13965.124066486844, -93145.64235754519, -0.18, -0.26, 0.91, 192.0, 0.0, 0.0, 0.0, 0.0, 0.0, 0.0, 0.0, 0.0, 0.0, 1.696996043268773E9, 0.0, 2023-10-10 20:47:23.268
62.0, -60960.69496401489, -23083.026478651343, 67442.1197106981, -13414.220620896891, -2515.4653210002566, -24143.5496978223, -13944.985144732613, -93102.3693802797, -0.18, -0.272, 0.91, 192.0, 250.0, 96.0, 247.0, 128.0, 28.0, 112.0, 0.0, 0.0, 0.0, 1.696996043268836E9, 0.0, 2023-10-10 20:47:23.268
63.0, -61005.73372909233, -23068.587251733217, 67447.28296366727, -13403.871763214083, -2511.3749517649358, -24124.774232479842, -13915.190269373688, -93044.23249295146, -0.18, -0.272, 0.91, 192.0, 0.0, 0.0, 0.0, 0.0, 0.0, 0.0, 0.0, 0.0, 0.0, 1.696996043276164E9, 0.0, 2023-10-10 20:47:23.276
64.0, -61054.214662815895, -23055.42207424904, 67452.93795501447, -13394.036995653749, -2507.1504720628827, -24106.110525859658, -13886.691795193172, -92985.24623933391, -0.18, -0.272, 0.91, 192.0, 0.0, 0.0, 0.0, 0.0, 0.0, 0.0, 0.0, 0.0, 0.0, 1.696996043276309E9, 0.0, 2023-10-10 20:47:23.276
65.0, -61095.78890750276, -23029.717568125438, 67457.98944926137, -13369.248911052813, -2491.6607131553546, -24068.09020854118, -13840.222518470588, -92907.75274130735, -0.18, -0.272, 0.91, 192.0, 0.0, 0.0, 0.0, 0.0, 0.0, 0.0, 0.0, 0.0, 0.0, 1.696996043284225E9, 0.0, 2023-10-10 20:47:23.284
66.0, -61181.17257132204, -23046.011989833354, 67432.15083267103, -13390.013681651793, -2516.1582250783713, -24079.66841216903, -13844.357591194821, -92880.23774388287, -0.18, -0.272, 0.91, 192.0, 0.0, 0.0, 0.0, 0.0, 0.0, 0.0, 0.0, 0.0, 0.0, 1.696996043284254E9, 0.0, 2023-10-10 20:47:23.284
67.0, -61246.48436862044, -23053.23160329242, 67428.75336751383, -13397.523867788777, -2525.7918269386087, -24083.267043026335, -13839.015524270002, -92843.60323472062, -0.18, -0.272, 0.91, 192.0, 0.0, 0.0, 0.0, 0.0, 0.0, 0.0, 0.0, 0.0, 0.0, 1.696996043291393E9, 0.0, 2023-10-10 20:47:23.291
68.0, -61291.679595909074, -23038.971190329932, 67436.30825713972, -13385.65509148301, -2518.2816408016256, -24064.111598028136, -13810.539401833941, -92783.7005595804, -0.18, -0.272, 0.91, 192.0, 0.0, 0.0, 0.0, 0.0, 0.0, 0.0, 0.0, 0.0, 0.0, 1.696996043291425E9, 0.0, 2023-10-10 20:47:23.291
69.0, -61368.10021020177, -23054.907984126567, 67422.76309999981, -13405.27992311477, -2538.1523416223936, -24077.544996445777, -13815.322675147376, -92758.82306800164, -0.18, -0.272, 0.91, 192.0, 0.0, 0.0, 0.0, 0.0, 0.0, 0.0, 0.0, 0.0, 0.0, 1.69699604329893E9, 0.0, 2023-10-10 20:47:23.298
70.0, -61424.2477922735, -23050.683504424516, 67426.9652279574, -13403.17885913597, -2540.521626534656, -24070.05716205325, -13799.318826117376, -92713.44902675737, -0.18, -0.272, 0.91, 192.0, 0.0, 0.0, 0.0, 0.0, 0.0, 0.0, 0.0, 0.0, 0.0, 1.696996043298969E9, 0.0, 2023-10-10 20:47:23.298
71.0, -61457.61894674527, -23025.89541982358, 67438.72224554089, -13379.396603035522, -2522.2826030591254, -24039.099995982648, -13759.15274133119, -92641.54346484465, -0.18, -0.272, 0.91, 192.0, 0.0, 0.0, 0.0, 0.0, 0.0, 0.0, 0.0, 0.0, 0.0, 1.696996043305793E9, 0.0, 2023-10-10 20:47:23.305
72.0, -61501.070737966395, -23009.31042543774, 67430.69796928143, -13367.572530218666, -2515.264155300159, -24012.61317880311, -13726.675656637628, -92573.32594076706, -0.164, -0.266, 0.914, 192.0, 250.0, 224.0, 247.0, 176.0, 28.0, 144.0, 0.0, 0.0, 0.0, 1.696996043313883E9, 0.0, 2023-10-10 20:47:23.313
73.0, -61553.84320662537, -23003.096640479165, 67427.74753901333, -13362.856312138596, -2513.7889401661087, -23995.290576850246, -13702.312255181343, -92515.14434994989, -0.164, -0.266, 0.914, 192.0, 0.0, 0.0, 0.0, 0.0, 0.0, 0.0, 0.0, 0.0, 0.0, 1.696996043313911E9, 0.0, 2023-10-10 20:47:23.313
74.0, -61613.18708815421, -23001.084983478187, 67421.44434707693, -13363.616271450075, -2518.527509990634, -23986.41693430149, -13687.649510818663, -92464.76351794762, -0.164, -0.266, 0.914, 192.0, 0.0, 0.0, 0.0, 0.0, 0.0, 0.0, 0.0, 0.0, 0.0, 1.696996043321064E9, 0.0, 2023-10-10 20:47:23.321
75.0, -61659.87988232135, -22985.1258379371, 67425.44530933443, -13352.283937011236, -2513.1407395769047, -23965.11572183558, -13661.073286661302, -92400.92693578327, -0.164, -0.266, 0.914, 192.0, 0.0, 0.0, 0.0, 0.0, 0.0, 0.0, 0.0, 0.0, 0.0, 1.696996043321094E9, 0.0, 2023-10-10 20:47:23.321
76.0, -61719.55904001702, -22980.141398923566, 67413.84475396214, -13352.708620155887, -2519.9356698913184, -23955.839747886628, -13645.114141120213, -92348.13211537983, -0.164, -0.266, 0.914, 192.0, 0.0, 0.0, 0.0, 0.0, 0.0, 0.0, 0.0, 0.0, 0.0, 1.696996043330523E9, 0.0, 2023-10-10 20:47:23.330
77.0, -61799.26536074464, -23002.15786721204, 67397.68444272094, -13379.307196057702, -2546.3554318374913, -23973.542329495234, -13658.346373837754, -92326.18270232472, -0.164, -0.266, 0.914, 192.0, 0.0, 0.0, 0.0, 0.0, 0.0, 0.0, 0.0, 0.0, 0.0, 1.696996043330552E9, 0.0, 2023-10-10 20:47:23.330
78.0, -61835.43048327333, -22985.25994840383, 67414.26943710679, -13366.007908106794, -2534.26313808717, -23950.83295712864, -13629.333809534766, -92262.97196900511, -0.164, -0.266, 0.914, 192.0, 0.0, 0.0, 0.0, 0.0, 0.0, 0.0, 0.0, 0.0, 0.0, 1.696996043338078E9, 0.0, 2023-10-10 20:47:23.338
79.0, -61884.69372805283, -22982.711849535925, 67407.5639137702, -13366.901977885007, -2540.5663300235665, -23944.932096592438, -13616.258039028411, -92213.55226201443, -0.164, -0.266, 0.914, 192.0, 0.0, 0.0, 0.0, 0.0, 0.0, 0.0, 0.0, 0.0, 0.0, 1.696996043338231E9, 0.0, 2023-10-10 20:47:23.338
80.0, -61918.40015869143, -22965.9703929389, 67409.37440507107, -13355.077905068149, -2533.50317877569, -23926.134279505528, -13589.055966026302, -92150.6991566061, -0.164, -0.266, 0.914, 192.0, 0.0, 0.0, 0.0, 0.0, 0.0, 0.0, 0.0, 0.0, 0.0, 1.696996043344506E9, 0.0, 2023-10-10 20:47:23.344
81.0, -61963.7741999357, -22961.187119625465, 67399.159657855, -13356.798989391207, -2538.688783489321, -23919.31699744666, -13574.080297241248, -92103.9840106945, -0.164, -0.266, 0.914, 192.0, 0.0, 0.0, 0.0, 0.0, 0.0, 0.0, 0.0, 0.0, 0.0, 1.696996043344535E9, 0.0, 2023-10-10 20:47:23.344
82.0, -62026.40378789947, -22970.820721485703, 67389.54840773922, -13371.059402353694, -2553.306824363092, -23929.30822721818, -13574.862608297182, -92074.70322545806, -0.156, -0.264, 0.918, 192.0, 251.0, 32.0, 247.0, 192.0, 28.0, 176.0, 0.0, 0.0, 0.0, 1.696996043351114E9, 0.0, 2023-10-10 20:47:23.351
83.0, -62076.65050943501, -22971.513625563817, 67389.07902110566, -13372.31110004319, -2558.8053534990972, -23928.704730117886, -13564.78197154784, -92032.90546332664, -0.156, -0.264, 0.918, 192.0, 0.0, 0.0, 0.0, 0.0, 0.0, 0.0, 0.0, 0.0, 0.0, 1.696996043351145E9, 0.0, 2023-10-10 20:47:23.351
84.0, -62121.04107392325, -22968.898471462548, 67390.26366356178, -13372.802838421207, -2564.7956210131197, -23926.55896265018, -13554.20959642048, -91990.72772153947, -0.156, -0.264, 0.918, 192.0, 0.0, 0.0, 0.0, 0.0, 0.0, 0.0, 0.0, 0.0, 0.0, 1.696996043359139E9, 0.0, 2023-10-10 20:47:23.359
85.0, -62148.26549866981, -22945.42913978447, 67399.91961716648, -13351.903957355495, -2550.334042350536, -23899.133372203516, -13519.810261703762, -91920.94557535001, -0.156, -0.264, 0.918, 192.0, 0.0, 0.0, 0.0, 0.0, 0.0, 0.0, 0.0, 0.0, 0.0, 1.69699604335917E9, 0.0, 2023-10-10 20:47:23.359
86.0, -62194.48890620338, -22941.74110194935, 67387.96143388288, -13352.909785855984, -2554.4914668192228, -23889.611529065554, -13505.348683041178, -91868.62014158013, -0.156, -0.264, 0.918, 192.0, 0.0, 0.0, 0.0, 0.0, 0.0, 0.0, 0.0, 0.0, 0.0, 1.696996043366272E9, 0.0, 2023-10-10 20:47:23.366
87.0, -62224.30613330676, -22925.826659897168, 67393.95170139692, -13341.756265372785, -2546.824818471053, -23867.684467754898, -13476.783153627295, -91804.4706349934, -0.156, -0.264, 0.918, 192.0, 0.0, 0.0, 0.0, 0.0, 0.0, 0.0, 0.0, 0.0, 0.0, 1.696996043373498E9, 0.0, 2023-10-10 20:47:23.373
88.0, -62269.32254663975, -22925.67019768598, 67388.54257923873, -13343.857329351584, -2555.229074386248, -23865.181072375904, -13469.250615745857, -91759.6553873605, -0.156, -0.264, 0.918, 192.0, 0.0, 0.0, 0.0, 0.0, 0.0, 0.0, 0.0, 0.0, 0.0, 1.696996043373536E9, 0.0, 2023-10-10 20:47:23.373
89.0, -62309.645093637126, -22923.166802306987, 67377.94785236691, -13345.287840996723, -2560.8617139889857, -23861.425979307412, -13460.801656341751, -91713.25316587128, -0.156, -0.264, 0.918, 192.0, 0.0, 0.0, 0.0, 0.0, 0.0, 0.0, 0.0, 0.0, 0.0, 1.696996043380729E9, 0.0, 2023-10-10 20:47:23.380
90.0, -62354.39328603665, -22929.02295935428, 67370.59412844111, -13353.625041678553, -2573.1104699504936, -23867.192729376882, -13459.304089463245, -91677.44567125388, -0.156, -0.264, 0.918, 192.0, 0.0, 0.0, 0.0, 0.0, 0.0, 0.0, 0.0, 0.0, 0.0, 1.696996043380758E9, 0.0, 2023-10-10 20:47:23.380
91.0, -62386.02100444091, -22923.747947662825, 67372.0022883418, -13353.960317845384, -2576.5749903410665, -23862.25299385226, -13446.742409079363, -91632.51866489871, -0.154, -0.268, 0.916, 192.0, 251.0, 48.0, 247.0, 160.0, 28.0, 160.0, 0.0, 0.0, 0.0, 1.696996043388751E9, 0.0, 2023-10-10 20:47:23.388
92.0, -62412.39606289817, -22914.717842902883, 67371.91288136398, -13346.360724730579, -2574.7197955512756, -23848.39491228997, -13426.55878383622, -91580.03676891766, -0.154, -0.268, 0.916, 192.0, 0.0, 0.0, 0.0, 0.0, 0.0, 0.0, 0.0, 0.0, 0.0, 1.696996043388799E9, 0.0, 2023-10-10 20:47:23.388
93.0, -62451.24339476149, -22918.070604571178, 67362.77101788175, -13350.16052128798, -2581.7605950546977, -23843.745749443264, -13417.46162384291, -91538.23900678623, -0.154, -0.268, 0.916, 192.0, 0.0, 0.0, 0.0, 0.0, 0.0, 0.0, 0.0, 0.0, 0.0, 1.696996043396885E9, 0.0, 2023-10-10 20:47:23.396
94.0, -62505.26756110997, -22935.080282101666, 67354.36676196656, -13370.50060874231, -2601.005447030717, -23858.073217639118, -13427.18463268097, -91515.68609663083, -0.154, -0.268, 0.916, 192.0, 0.0, 0.0, 0.0, 0.0, 0.0, 0.0, 0.0, 0.0, 0.0, 1.696996043397082E9, 0.0, 2023-10-10 20:47:23.397
95.0, -62524.91474448619, -22920.708110416905, 67365.2520615163, -13357.290727769225, -2591.908287037407, -23843.790452932175, -13405.03405392576, -91461.37135760444, -0.154, -0.268, 0.916, 192.0, 0.0, 0.0, 0.0, 0.0, 0.0, 0.0, 0.0, 0.0, 0.0, 1.696996043403401E9, 0.0, 2023-10-10 20:47:23.403
96.0, -62529.31803814388, -22889.86270306858, 67372.76224765329, -13330.133358256026, -2570.718833293776, -23809.32406298209, -13362.11870457157, -91387.00710380163, -0.154, -0.268, 0.916, 192.0, 0.0, 0.0, 0.0, 0.0, 0.0, 0.0, 0.0, 0.0, 0.0, 1.696996043403423E9, 0.0, 2023-10-10 20:47:23.403
97.0, -62581.6211201693, -22906.87238059907, 67347.84005258561, -13350.808721877185, -2593.8975922939294, -23820.790507887665, -13369.941815130927, -91361.8166878005, -0.154, -0.268, 0.916, 192.0, 0.0, 0.0, 0.0, 0.0, 0.0, 0.0, 0.0, 0.0, 0.0, 1.696996043411396E9, 0.0, 2023-10-10 20:47:23.411
98.0, -62605.24691405856, -22897.551703161207, 67353.2491747438, -13341.778617117241, -2593.4952608937338, -23808.161772270414, -13349.512320698777, -91311.48055928714, -0.154, -0.268, 0.916, 192.0, 0.0, 0.0, 0.0, 0.0, 0.0, 0.0, 0.0, 0.0, 0.0, 1.696996043411429E9, 0.0, 2023-10-10 20:47:23.411
99.0, -62617.76389095353, -22876.876339540046, 67358.63594515753, -13325.68536110942, -2584.7333770672535, -23780.892644034942, -13316.409387160467, -91246.14641024428, -0.154, -0.268, 0.916, 192.0, 0.0, 0.0, 0.0, 0.0, 0.0, 0.0, 0.0, 0.0, 0.0, 1.696996043419423E9, 0.0, 2023-10-10 20:47:23.419
100.0, -62631.577269026915, -22856.893879997002, 67363.26275625978, -13312.520183625244, -2574.563333340089, -23752.684742532343, -13285.63103504551, -91180.34287456785, -0.154, -0.268, 0.916, 192.0, 0.0, 0.0, 0.0, 0.0, 0.0, 0.0, 0.0, 0.0, 0.0, 1.696996043419446E9, 0.0, 2023-10-10 20:47:23.419
101.0, -62678.67239459424, -22869.99200224781, 67341.6933228604, -13329.909840811473, -2591.818880059586, -23758.719713535276, -13291.39778511498, -91150.72681316457, -0.158, -0.268, 0.916, 192.0, 251.0, 16.0, 247.0, 160.0, 28.0, 160.0, 0.0, 0.0, 0.0, 1.696996043426592E9, 0.0, 2023-10-10 20:47:23.426
102.0, -62707.23792400813, -22867.66742082446, 67341.96154379386, -13330.334523956124, -2593.8528888050187, -23751.500100076213, -13282.72530826632, -91108.41496091068, -0.158, -0.268, 0.916, 192.0, 0.0, 0.0, 0.0, 0.0, 0.0, 0.0, 0.0, 0.0, 0.0, 1.69699604342662E9, 0.0, 2023-10-10 20:47:23.426
103.0, -62726.16985156177, -22854.032856706723, 67348.10827351907, -13322.958448285872, -2589.4719468917783, -23737.306742347093, -13263.659270245942, -91055.48603004051, -0.158, -0.268, 0.916, 192.0, 0.0, 0.0, 0.0, 0.0, 0.0, 0.0, 0.0, 0.0, 0.0, 1.69699604343328E9, 0.0, 2023-10-10 20:47:23.433
104.0, -62752.36609606339, -22844.980400202323, 67342.900317061, -13320.767977329253, -2591.7294730817644, -23727.337864320027, -13249.28709856118, -91006.73687538349, -0.158, -0.268, 0.916, 192.0, 0.0, 0.0, 0.0, 0.0, 0.0, 0.0, 0.0, 0.0, 0.0, 1.696996043440961E9, 0.0, 2023-10-10 20:47:23.440
105.0, -62800.44469838676, -22862.01242947727, 67319.74390980529, -13341.130416528036, -2614.3494384705355, -23743.766396494677, -13260.351212066558, -90985.18979372857, -0.158, -0.268, 0.916, 192.0, 0.0, 0.0, 0.0, 0.0, 0.0, 0.0, 0.0, 0.0, 0.0, 1.696996043440982E9, 0.0, 2023-10-10 20:47:23.440
106.0, -62822.14824225286, -22861.788912032716, 67322.60493309557, -13341.152768272492, -2617.2998687386357, -23742.849974972007, -13253.221005585314, -90947.54945606584, -0.158, -0.268, 0.916, 192.0, 0.0, 0.0, 0.0, 0.0, 0.0, 0.0, 0.0, 0.0, 0.0, 1.696996043449161E9, 0.0, 2023-10-10 20:47:23.449
107.0, -62824.76339635413, -22841.739397256304, 67333.75845357878, -13321.997323274294, -2603.866470320996, -23717.994835137706, -13222.33089474808, -90884.13755704612, -0.158, -0.268, 0.916, 192.0, 0.0, 0.0, 0.0, 0.0, 0.0, 0.0, 0.0, 0.0, 0.0, 1.696996043449208E9, 0.0, 2023-10-10 20:47:23.449
108.0, -62851.40667574486, -22844.51101356876, 67324.28131392972, -13326.512375654267, -2612.002505302728, -23717.525448504144, -13217.726435390286, -90847.1454199726, -0.158, -0.268, 0.916, 192.0, 0.0, 0.0, 0.0, 0.0, 0.0, 0.0, 0.0, 0.0, 0.0, 1.696996043455692E9, 0.0, 2023-10-10 20:47:23.455
109.0, -62858.335716526, -22822.56160051365, 67333.17730822293, -13310.709692324364, -2599.843156319041, -23693.45261972578, -13190.323196688081, -90784.42642503101, -0.158, -0.268, 0.916, 192.0, 0.0, 0.0, 0.0, 0.0, 0.0, 0.0, 0.0, 0.0, 0.0, 1.696996043455891E9, 0.0, 2023-10-10 20:47:23.455
110.0, -62881.08979238151, -22817.13012661101, 67329.82454655464, -13309.860326035063, -2603.128862753971, -23684.936605088307, -13179.572007605078, -90736.99602329684, -0.158, -0.268, 0.916, 192.0, 0.0, 0.0, 0.0, 0.0, 0.0, 0.0, 0.0, 0.0, 0.0, 1.696996043463596E9, 0.0, 2023-10-10 20:47:23.463
111.0, -62935.58334536354, -22850.389522360507, 67300.52140957373, -13346.025448563749, -2638.355212015535, -23718.419518282357, -13207.84696434104, -90735.40904944051, -0.156, -0.276, 0.92, 192.0, 251.0, 32.0, 247.0, 96.0, 28.0, 192.0, 0.0, 0.0, 0.0, 1.696996043463621E9, 0.0, 2023-10-10 20:47:23.463
112.0, -62925.03332198064, -22821.533420268708, 67326.62824709753, -13318.912782539463, -2617.769255372197, -23689.138733045904, -13171.234806923248, -90668.97966491934, -0.156, -0.276, 0.92, 192.0, 0.0, 0.0, 0.0, 0.0, 0.0, 0.0, 0.0, 0.0, 0.0, 1.696996043471795E9, 0.0, 2023-10-10 20:47:23.471
113.0, -62922.462871368276, -22788.430486730398, 67331.3444651776, -13287.86620949104, -2595.909249294907, -23646.737473814188, -13125.301972067593, -90588.51338488024, -0.156, -0.276, 0.92, 192.0, 0.0, 0.0, 0.0, 0.0, 0.0, 0.0, 0.0, 0.0, 0.0, 1.696996043471826E9, 0.0, 2023-10-10 20:47:23.471
114.0, -62958.538586919145, -22791.872655376515, 67311.11613644555, -13295.532857839211, -2604.6711331213874, -23647.296267425572, -13119.289352809115, -90550.47071581731, -0.156, -0.276, 0.92, 192.0, 0.0, 0.0, 0.0, 0.0, 0.0, 0.0, 0.0, 0.0, 0.0, 1.696996043478855E9, 0.0, 2023-10-10 20:47:23.478
115.0, -62961.667831142884, -22765.98933529727, 67309.99854922277, -13276.869151219029, -2588.7119875802982, -23616.495563566157, -13084.197114014283, -90481.09090102803, -0.156, -0.276, 0.92, 192.0, 0.0, 0.0, 0.0, 0.0, 0.0, 0.0, 0.0, 0.0, 0.0, 1.696996043478886E9, 0.0, 2023-10-10 20:47:23.478
116.0, -62985.65125294343, -22763.12831200699, 67302.0860316856, -13281.406555343458, -2595.015179516695, -23609.655929762834, -13077.469238933236, -90438.68964179631, -0.156, -0.276, 0.92, 192.0, 0.0, 0.0, 0.0, 0.0, 0.0, 0.0, 0.0, 0.0, 0.0, 1.696996043486287E9, 0.0, 2023-10-10 20:47:23.486
117.0, -63002.12448860699, -22758.501500904742, 67298.75562176175, -13280.423078587422, -2599.194955729837, -23605.29733959405, -13068.886169062396, -90395.6401819754, -0.156, -0.276, 0.92, 192.0, 0.0, 0.0, 0.0, 0.0, 0.0, 0.0, 0.0, 0.0, 0.0, 1.696996043486316E9, 0.0, 2023-10-10 20:47:23.486
118.0, -63023.068073161616, -22760.803730583637, 67292.43007808091, -13285.809849001153, -2607.5768599005773, -23602.369261070402, -13064.169950982327, -90355.4740971892, -0.156, -0.276, 0.92, 192.0, 0.0, 0.0, 0.0, 0.0, 0.0, 0.0, 0.0, 0.0, 0.0, 1.696996043494702E9, 0.0, 2023-10-10 20:47:23.494
119.0, -63046.559756584145, -22765.519948663707, 67285.92572044441, -13291.375433370524, -2615.6011361600326, -23604.067993649005, -13061.353631180958, -90318.45960837122, -0.156, -0.276, 0.92, 192.0, 0.0, 0.0, 0.0, 0.0, 0.0, 0.0, 0.0, 0.0, 0.0, 1.696996043502325E9, 0.0, 2023-10-10 20:47:23.502
120.0, -63099.57809443213, -22800.74629792527, 67256.53317648568, -13330.334523956124, -2654.6943372123646, -23642.401235389858, -13094.993006586195, -90321.41003863931, -0.14400000000000002, -0.272, 0.922, 192.0, 251.0, 128.0, 247.0, 128.0, 28.0, 208.0, 0.0, 0.0, 0.0, 1.69699604350236E9, 0.0, 2023-10-10 20:47:23.502
121.0, -63085.89882682548, -22775.801751113147, 67283.42232506542, -13307.02165448924, -2636.9917556037612, -23621.412947346325, -13066.338070194492, -90267.38587229083, -0.14400000000000002, -0.272, 0.922, 192.0, 0.0, 0.0, 0.0, 0.0, 0.0, 0.0, 0.0, 0.0, 0.0, 1.696996043508374E9, 0.0, 2023-10-10 20:47:23.508
122.0, -63074.365326686544, -22746.3198001766, 67291.06662166913, -13281.71947976583, -2619.2221187617924, -23588.511179508114, -13028.921249976309, -90198.38603715731, -0.14400000000000002, -0.272, 0.922, 192.0, 0.0, 0.0, 0.0, 0.0, 0.0, 0.0, 0.0, 0.0, 0.0, 1.696996043508396E9, 0.0, 2023-10-10 20:47:23.508
123.0, -63094.370137974045, -22747.415035654907, 67277.36500231802, -13287.463878090844, -2629.168645044404, -23583.86201666141, -13023.981514451685, -90159.784574483, -0.14400000000000002, -0.272, 0.922, 192.0, 0.0, 0.0, 0.0, 0.0, 0.0, 0.0, 0.0, 0.0, 0.0, 1.696996043515942E9, 0.0, 2023-10-10 20:47:23.515
124.0, -63116.43130975143, -22755.014628769713, 67269.0278016362, -13296.471631106333, -2643.4737614958003, -23589.964042897707, -13026.551965064045, -90133.20835032563, -0.14400000000000002, -0.272, 0.922, 192.0, 0.0, 0.0, 0.0, 0.0, 0.0, 0.0, 0.0, 0.0, 0.0, 1.69699604351614E9, 0.0, 2023-10-10 20:47:23.516
125.0, -63096.9405885864, -22716.54727656213, 67283.26586285423, -13258.607775999044, -2617.813958861108, -23544.388835953338, -12977.579292962468, -90051.04333770792, -0.14400000000000002, -0.272, 0.922, 192.0, 0.0, 0.0, 0.0, 0.0, 0.0, 0.0, 0.0, 0.0, 0.0, 1.696996043523858E9, 0.0, 2023-10-10 20:47:23.523
126.0, -63125.93080114494, -22723.319855132086, 67262.83636842208, -13270.09657264907, -2630.3756392449905, -23544.36648420888, -12975.455877239214, -90017.8957006807, -0.14400000000000002, -0.272, 0.922, 192.0, 0.0, 0.0, 0.0, 0.0, 0.0, 0.0, 0.0, 0.0, 0.0, 1.69699604352388E9, 0.0, 2023-10-10 20:47:23.523
127.0, -63129.395321535514, -22710.959340448302, 67268.35724930254, -13263.905139434952, -2625.972345587295, -23528.474393901157, -12957.865054352887, -89967.91720007863, -0.14400000000000002, -0.272, 0.922, 192.0, 0.0, 0.0, 0.0, 0.0, 0.0, 0.0, 0.0, 0.0, 0.0, 1.696996043531964E9, 0.0, 2023-10-10 20:47:23.531
128.0, -63145.51092928779, -22709.12649740297, 67254.52151948471, -13265.067430146628, -2634.421304991401, -23523.489954887624, -12951.94184207223, -89927.57230133681, -0.14400000000000002, -0.272, 0.922, 192.0, 0.0, 0.0, 0.0, 0.0, 0.0, 0.0, 0.0, 0.0, 0.0, 1.696996043532004E9, 0.0, 2023-10-10 20:47:23.532
129.0, -63158.67610677196, -22706.936026446347, 67246.65370543643, -13266.363831325036, -2641.23858705027, -23519.75721356359, -12943.291716968026, -89889.28376308487, -0.14400000000000002, -0.272, 0.922, 192.0, 0.0, 0.0, 0.0, 0.0, 0.0, 0.0, 0.0, 0.0, 0.0, 1.696996043538533E9, 0.0, 2023-10-10 20:47:23.538
130.0, -63166.94625222043, -22702.398622321918, 67252.46515899482, -13265.089781891082, -2643.294947540158, -23512.090565215418, -12931.378237173349, -89847.53070444235, -0.126, -0.264, 0.922, 192.0, 252.0, 16.0, 247.0, 192.0, 28.0, 208.0, 0.0, 0.0, 0.0, 1.696996043538556E9, 0.0, 2023-10-10 20:47:23.538
131.0, -63149.02015316727, -22671.24029055122, 67259.75182768724, -13241.508691490733, -2624.653592664432, -23477.735933987613, -12894.430803588726, -89777.9944274419, -0.126, -0.264, 0.922, 192.0, 0.0, 0.0, 0.0, 0.0, 0.0, 0.0, 0.0, 0.0, 0.0, 1.696996043546586E9, 0.0, 2023-10-10 20:47:23.546
132.0, -63187.12987746357, -22693.86025593999, 67230.1134145395, -13271.214159871837, -2655.253130823747, -23498.7465737756, -12914.592077087413, -89767.84673545918, -0.126, -0.264, 0.922, 192.0, 0.0, 0.0, 0.0, 0.0, 0.0, 0.0, 0.0, 0.0, 0.0, 1.696996043546617E9, 0.0, 2023-10-10 20:47:23.546
133.0, -63176.445743613935, -22673.654278952396, 67245.35730425802, -13250.203520083847, -2639.8304271495854, -23474.11495138585, -12884.640739517301, -89711.20741500944, -0.126, -0.264, 0.922, 192.0, 0.0, 0.0, 0.0, 0.0, 0.0, 0.0, 0.0, 0.0, 0.0, 1.696996043553553E9, 0.0, 2023-10-10 20:47:23.553
134.0, -63188.76155480881, -22671.19558706231, 67237.31067625411, -13249.66707821692, -2642.646746950954, -23466.895337926788, -12873.263701589549, -89672.20362093492, -0.126, -0.264, 0.922, 192.0, 0.0, 0.0, 0.0, 0.0, 0.0, 0.0, 0.0, 0.0, 0.0, 1.696996043561615E9, 0.0, 2023-10-10 20:47:23.561
135.0, -63203.848982316136, -22669.407447505888, 67226.64889414894, -13251.835197429085, -2648.2570348092363, -23462.313230313448, -12865.038259629997, -89634.94326292793, -0.126, -0.264, 0.922, 192.0, 0.0, 0.0, 0.0, 0.0, 0.0, 0.0, 0.0, 0.0, 0.0, 1.696996043561637E9, 0.0, 2023-10-10 20:47:23.561
136.0, -63201.5691043817, -22653.20243277579, 67235.83546112006, -13238.357095522535, -2640.8362556500742, -23442.196660303674, -12841.144244807274, -89582.86369834706, -0.126, -0.264, 0.922, 192.0, 0.0, 0.0, 0.0, 0.0, 0.0, 0.0, 0.0, 0.0, 0.0, 1.696996043568213E9, 0.0, 2023-10-10 20:47:23.568
137.0, -63212.90143882054, -22652.75539788668, 67227.47590869378, -13241.195767068359, -2648.838180165074, -23437.793366645976, -12833.030561569996, -89546.72092756283, -0.126, -0.264, 0.922, 192.0, 0.0, 0.0, 0.0, 0.0, 0.0, 0.0, 0.0, 0.0, 0.0, 1.696996043568248E9, 0.0, 2023-10-10 20:47:23.568
138.0, -63196.65172060153, -22620.881810293416, 67240.59638268905, -13214.798356866642, -2629.1462932999484, -23403.796363329457, -12794.540857617958, -89478.7716244187, -0.126, -0.264, 0.922, 192.0, 0.0, 0.0, 0.0, 0.0, 0.0, 0.0, 0.0, 0.0, 0.0, 1.696996043576209E9, 0.0, 2023-10-10 20:47:23.576
139.0, -63235.14142455357, -22645.82635710554, 67200.58676011405, -13244.61558397002, -2662.6515582384536, -23426.125756040306, -12817.29493347346, -89469.89798186994, -0.126, -0.264, 0.922, 192.0, 0.0, 0.0, 0.0, 0.0, 0.0, 0.0, 0.0, 0.0, 0.0, 1.696996043576237E9, 0.0, 2023-10-10 20:47:23.576
140.0, -63251.50290149485, -22656.82341537755, 67197.68103333485, -13257.490188776279, -2677.761337490241, -23441.190831803186, -12828.046122556463, -89455.07877529608, -0.106, -0.248, 0.924, 192.0, 252.0, 176.0, 248.0, 64.0, 28.0, 224.0, 0.0, 0.0, 0.0, 1.696996043584255E9, 0.0, 2023-10-10 20:47:23.584
141.0, -63226.13367153808, -22626.536801640606, 67212.5672951421, -13230.466929729811, -2657.890636669473, -23409.76427909902, -12790.718709316101, -89392.35978035448, -0.106, -0.248, 0.924, 192.0, 0.0, 0.0, 0.0, 0.0, 0.0, 0.0, 0.0, 0.0, 0.0, 1.696996043584307E9, 0.0, 2023-10-10 20:47:23.584
142.0, -63223.56322092572, -22616.836144547004, 67210.15330674092, -13221.369769736502, -2654.8060959346412, -23391.90523527923, -12773.552569574425, -89346.04696584308, -0.106, -0.248, 0.924, 192.0, 0.0, 0.0, 0.0, 0.0, 0.0, 0.0, 0.0, 0.0, 0.0, 1.696996043590801E9, 0.0, 2023-10-10 20:47:23.590
143.0, -63236.59428794316, -22618.221952703232, 67200.09502173604, -13227.695313417355, -2662.3162820716243, -23387.926624766187, -12769.708069528113, -89314.19572999427, -0.106, -0.248, 0.924, 192.0, 0.0, 0.0, 0.0, 0.0, 0.0, 0.0, 0.0, 0.0, 0.0, 1.696996043590824E9, 0.0, 2023-10-10 20:47:23.590
144.0, -63235.0743693202, -22603.872132762925, 67202.6654723484, -13218.95578133533, -2656.19190409087, -23370.67107804669, -12750.865548952288, -89266.5194590711, -0.106, -0.248, 0.924, 192.0, 0.0, 0.0, 0.0, 0.0, 0.0, 0.0, 0.0, 0.0, 0.0, 1.696996043598909E9, 0.0, 2023-10-10 20:47:23.598
145.0, -63236.37077049861, -22593.120943679925, 67200.47500139178, -13212.13849927646, -2652.973252889306, -23354.756635994512, -12731.37482778726, -89218.68672593674, -0.106, -0.248, 0.924, 192.0, 0.0, 0.0, 0.0, 0.0, 0.0, 0.0, 0.0, 0.0, 0.0, 1.696996043598953E9, 0.0, 2023-10-10 20:47:23.598
