%OpenBCI Raw EEG Data
%Number of channels = 8
%Sample Rate = 250 Hz
%Board = OpenBCI_GUI$BoardCytonSerial
Sample Index, EXG Channel 0, EXG Channel 1, EXG Channel 2, EXG Channel 3, EXG Channel 4, EXG Channel 5, EXG Channel 6, EXG Channel 7, Accel Channel 0, Accel Channel 1, Accel Channel 2, Other, Other, Other, Other, Other, Other, Other, Analog Channel 0, Analog Channel 1, Analog Channel 2, Timestamp, Other, Timestamp (Formatted)
0.0, 0.0, 0.0, 0.0, 0.0, 0.0, 0.0, 0.0, 0.0, -0.17200000000000001, -0.314, 0.9, 192.0, 250.0, 160.0, 246.0, 48.0, 28.0, 32.0, 0.0, 0.0, 0.0, 1.696995429922302E9, 0.0, 2023-10-10 20:37:09.922
1.0, -88410.53705341066, -29852.85578404138, 75921.63394947458, -18225.45596664619, -11291.251932531826, -19334.527174774074, -18694.4626205519, -81178.1607482625, -0.17200000000000001, -0.314, 0.9, 192.0, 0.0, 0.0, 0.0, 0.0, 0.0, 0.0, 0.0, 0.0, 0.0, 1.696995429931131E9, 0.0, 2023-10-10 20:37:09.931
2.0, -88417.57785291408, -29850.933534018226, 75926.2160570879, -18227.691141091724, -11295.588170956156, -19337.321142830988, -18696.429574063968, -81169.26475396928, -0.17200000000000001, -0.314, 0.9, 192.0, 0.0, 0.0, 0.0, 0.0, 0.0, 0.0, 0.0, 0.0, 0.0, 1.696995429937218E9, 0.0, 2023-10-10 20:37:09.937
3.0, -88439.3261002691, -29864.97042953616, 75914.03435635977, -18246.66777213428, -11317.157604355527, -19361.326916375987, -18714.199210905936, -81180.48532968585, -0.17200000000000001, -0.314, 0.9, 192.0, 0.0, 0.0, 0.0, 0.0, 0.0, 0.0, 0.0, 0.0, 0.0, 1.696995429937244E9, 0.0, 2023-10-10 20:37:09.937
4.0, -88422.51758843871, -29849.95005726219, 75925.03141463178, -18239.381103441847, -11312.486089764368, -19353.72732326118, -18700.5646467882, -81161.08401549865, -0.17200000000000001, -0.314, 0.9, 192.0, 0.0, 0.0, 0.0, 0.0, 0.0, 0.0, 0.0, 0.0, 0.0, 1.696995429943199E9, 0.0, 2023-10-10 20:37:09.943
5.0, -88407.02782953117, -29822.077431926424, 75928.83121118919, -18216.26939967506, -11289.32968250867, -19317.897476899325, -18661.44909399141, -81110.9937561743, -0.17200000000000001, -0.314, 0.9, 192.0, 0.0, 0.0, 0.0, 0.0, 0.0, 0.0, 0.0, 0.0, 0.0, 1.696995429943222E9, 0.0, 2023-10-10 20:37:09.943
6.0, -88427.43497221888, -29830.347577374887, 75911.70977493642, -18229.009894014587, -11297.756290168321, -19320.19970657822, -18662.70079168091, -81099.54966301318, -0.17200000000000001, -0.314, 0.9, 192.0, 0.0, 0.0, 0.0, 0.0, 0.0, 0.0, 0.0, 0.0, 0.0, 1.69699542995042E9, 0.0, 2023-10-10 20:37:09.950
7.0, -88447.46213525083, -29838.550667589985, 75905.38423125556, -18244.8572808334, -11311.279095563781, -19334.728340474172, -18674.278995308756, -81101.67307873644, -0.178, -0.298, 0.906, 192.0, 250.0, 112.0, 246.0, 176.0, 28.0, 80.0, 0.0, 0.0, 0.0, 1.696995429950443E9, 0.0, 2023-10-10 20:37:09.950
8.0, -88440.44368749186, -29814.656652767262, 75917.5659319837, -18227.288809691527, -11294.157659311017, -19314.611770464395, -18653.335410754135, -81069.71008416534, -0.178, -0.298, 0.906, 192.0, 0.0, 0.0, 0.0, 0.0, 0.0, 0.0, 0.0, 0.0, 0.0, 1.696995429958953E9, 0.0, 2023-10-10 20:37:09.958
9.0, -88466.3270075711, -29818.27763536902, 75910.167504569, -18234.687237106235, -11301.354921025626, -19315.461136753696, -18654.40829448799, -81057.64014215948, -0.178, -0.298, 0.906, 192.0, 0.0, 0.0, 0.0, 0.0, 0.0, 0.0, 0.0, 0.0, 0.0, 1.696995429958995E9, 0.0, 2023-10-10 20:37:09.958
10.0, -88480.47566181132, -29814.589597533897, 75913.18499007047, -18236.56478364048, -11303.701854193432, -19316.48931699864, -18652.664858420474, -81044.38555769749, -0.178, -0.298, 0.906, 192.0, 0.0, 0.0, 0.0, 0.0, 0.0, 0.0, 0.0, 0.0, 0.0, 1.696995429965682E9, 0.0, 2023-10-10 20:37:09.965
11.0, -88480.54271704468, -29821.80921099296, 75899.99746084184, -18247.830062845955, -11312.642551975556, -19326.480546770163, -18659.370381757068, -81040.78692684018, -0.178, -0.298, 0.906, 192.0, 0.0, 0.0, 0.0, 0.0, 0.0, 0.0, 0.0, 0.0, 0.0, 1.696995429965705E9, 0.0, 2023-10-10 20:37:09.965
12.0, -88458.81682143413, -29810.007489920557, 75908.73699292386, -18240.74455985362, -11305.959380383418, -19318.746843188626, -18647.009867073284, -81019.19514169636, -0.178, -0.298, 0.906, 192.0, 0.0, 0.0, 0.0, 0.0, 0.0, 0.0, 0.0, 0.0, 0.0, 1.69699542997198E9, 0.0, 2023-10-10 20:37:09.971
13.0, -88470.03739715069, -29814.500190556075, 75894.70009740593, -18247.47243493467, -11316.062368877218, -19324.9606281472, -18648.97682058535, -81012.80254278214, -0.178, -0.298, 0.906, 192.0, 0.0, 0.0, 0.0, 0.0, 0.0, 0.0, 0.0, 0.0, 0.0, 1.696995429972017E9, 0.0, 2023-10-10 20:37:09.972
14.0, -88468.56218201664, -29799.61392874884, 75901.83030388717, -18235.693065606723, -11306.652284461534, -19312.68952044124, -18631.721273865853, -80986.3157256026, -0.178, -0.298, 0.906, 192.0, 0.0, 0.0, 0.0, 0.0, 0.0, 0.0, 0.0, 0.0, 0.0, 1.696995429979727E9, 0.0, 2023-10-10 20:37:09.979
15.0, -88485.79537699168, -29801.022088649523, 75890.58737642615, -18242.62210638787, -11313.022531631295, -19313.20361056371, -18629.97783779834, -80973.3070103296, -0.178, -0.298, 0.906, 192.0, 0.0, 0.0, 0.0, 0.0, 0.0, 0.0, 0.0, 0.0, 0.0, 1.696995429979756E9, 0.0, 2023-10-10 20:37:09.979
16.0, -88494.80313000717, -29798.205768848155, 75894.07424856118, -18244.074969777463, -11316.040017132762, -19314.34354953093, -18627.854422075085, -80964.83569918104, -0.178, -0.298, 0.906, 192.0, 0.0, 0.0, 0.0, 0.0, 0.0, 0.0, 0.0, 0.0, 0.0, 1.696995429986732E9, 0.0, 2023-10-10 20:37:09.986
17.0, -88513.06450522716, -29800.37388806032, 75884.10537053412, -18249.662905891288, -11323.304334080736, -19319.752671689115, -18629.307285464678, -80957.88430665545, -0.176, -0.292, 0.908, 192.0, 250.0, 128.0, 246.0, 224.0, 28.0, 96.0, 0.0, 0.0, 0.0, 1.696995429996627E9, 0.0, 2023-10-10 20:37:09.996
18.0, -88509.17530169192, -29784.526501241508, 75891.57085318219, -18242.063312776485, -11315.592982243656, -19307.86154363889, -18612.36466316756, -80932.91740809887, -0.176, -0.292, 0.908, 192.0, 0.0, 0.0, 0.0, 0.0, 0.0, 0.0, 0.0, 0.0, 0.0, 1.696995429996652E9, 0.0, 2023-10-10 20:37:09.996
19.0, -88541.20535149639, -29793.62366123482, 75876.66223963049, -18259.05063856252, -11330.926278939996, -19320.803203678515, -18622.288837705713, -80933.2526842657, -0.176, -0.292, 0.908, 192.0, 0.0, 0.0, 0.0, 0.0, 0.0, 0.0, 0.0, 0.0, 0.0, 1.696995430002662E9, 0.0, 2023-10-10 20:37:10.002
20.0, -88558.48324996034, -29786.024068120012, 75876.70694311941, -18252.83685360394, -11324.868956192608, -19312.06367159649, -18609.816564299654, -80911.92912005534, -0.176, -0.292, 0.908, 192.0, 0.0, 0.0, 0.0, 0.0, 0.0, 0.0, 0.0, 0.0, 0.0, 1.696995430002687E9, 0.0, 2023-10-10 20:37:10.002
21.0, -88579.09155834813, -29807.548798030475, 75862.5582888792, -18275.836798648455, -11346.684258780988, -19337.87993644237, -18631.944791310405, -80926.99419581822, -0.176, -0.292, 0.908, 192.0, 0.0, 0.0, 0.0, 0.0, 0.0, 0.0, 0.0, 0.0, 0.0, 1.696995430009399E9, 0.0, 2023-10-10 20:37:10.009
22.0, -88562.03717732873, -29792.282556567498, 75872.19189073943, -18263.923318853776, -11337.184767387482, -19328.62631423787, -18616.387977169514, -80906.36353568596, -0.176, -0.292, 0.908, 192.0, 0.0, 0.0, 0.0, 0.0, 0.0, 0.0, 0.0, 0.0, 0.0, 1.696995430009431E9, 0.0, 2023-10-10 20:37:10.009
23.0, -88568.58623845414, -29790.494417011076, 75861.5077568898, -18266.873749121874, -11342.169206401017, -19328.380445048864, -18610.53182012222, -80892.77367505713, -0.176, -0.292, 0.908, 192.0, 0.0, 0.0, 0.0, 0.0, 0.0, 0.0, 0.0, 0.0, 0.0, 1.696995430017349E9, 0.0, 2023-10-10 20:37:10.017
24.0, -88570.12850882155, -29784.101818096857, 75860.18900396694, -18263.47628396467, -11339.084665666183, -19321.987846134645, -18600.048851972682, -80873.12649168093, -0.176, -0.292, 0.908, 192.0, 0.0, 0.0, 0.0, 0.0, 0.0, 0.0, 0.0, 0.0, 0.0, 1.696995430017408E9, 0.0, 2023-10-10 20:37:10.017
25.0, -88585.30534330671, -29793.333088556898, 75847.56026834968, -18272.81931314699, -11348.58415705969, -19328.715721215693, -18603.401613640977, -80867.337389867, -0.176, -0.292, 0.908, 192.0, 0.0, 0.0, 0.0, 0.0, 0.0, 0.0, 0.0, 0.0, 0.0, 1.696995430025574E9, 0.0, 2023-10-10 20:37:10.025
26.0, -88586.75820669631, -29787.678097209704, 75850.73421606234, -18274.04865909203, -11350.595814060667, -19328.223982837677, -18599.914741505952, -80856.63090427291, -0.176, -0.292, 0.908, 192.0, 0.0, 0.0, 0.0, 0.0, 0.0, 0.0, 0.0, 0.0, 0.0, 1.696995430025596E9, 0.0, 2023-10-10 20:37:10.025
27.0, -88573.07893908965, -29775.406989503743, 75852.74587306332, -18267.365487499894, -11344.203215146448, -19315.505840242608, -18584.5367413207, -80833.54155225058, -0.17400000000000002, -0.28, 0.906, 192.0, 250.0, 144.0, 247.0, 64.0, 28.0, 80.0, 0.0, 0.0, 0.0, 1.696995430033686E9, 0.0, 2023-10-10 20:37:10.033
28.0, -88567.62511344255, -29769.662591178727, 75848.09671021662, -18264.12448455387, -11340.470473822412, -19303.59236044793, -18569.24814811327, -80809.04404032756, -0.17400000000000002, -0.28, 0.906, 192.0, 0.0, 0.0, 0.0, 0.0, 0.0, 0.0, 0.0, 0.0, 0.0, 1.696995430033725E9, 0.0, 2023-10-10 20:37:10.033
29.0, -88600.77275046978, -29778.98326861659, 75838.46310835637, -18280.307147539515, -11355.848474007664, -19318.25510481061, -18580.28990987419, -80810.7204211617, -0.17400000000000002, -0.28, 0.906, 192.0, 0.0, 0.0, 0.0, 0.0, 0.0, 0.0, 0.0, 0.0, 0.0, 1.696995430042411E9, 0.0, 2023-10-10 20:37:10.042
30.0, -88610.22753837437, -29768.589707444873, 75841.94998049141, -18276.641461448846, -11351.892215239075, -19312.890686141334, -18571.39391558098, -80790.49209242966, -0.17400000000000002, -0.28, 0.906, 192.0, 0.0, 0.0, 0.0, 0.0, 0.0, 0.0, 0.0, 0.0, 0.0, 1.696995430042452E9, 0.0, 2023-10-10 20:37:10.042
31.0, -88598.20229985742, -29754.821032860404, 75840.18419267943, -18264.75033339862, -11343.040924434772, -19295.858656866392, -18551.120883360014, -80758.39498739183, -0.17400000000000002, -0.28, 0.906, 192.0, 0.0, 0.0, 0.0, 0.0, 0.0, 0.0, 0.0, 0.0, 0.0, 1.696995430047449E9, 0.0, 2023-10-10 20:37:10.047
32.0, -88624.93498622597, -29775.094065081368, 75818.01126217977, -18290.52189475559, -11370.399459648068, -19322.658398468306, -18572.980889437305, -80771.53781313155, -0.17400000000000002, -0.28, 0.906, 192.0, 0.0, 0.0, 0.0, 0.0, 0.0, 0.0, 0.0, 0.0, 0.0, 1.696995430055537E9, 0.0, 2023-10-10 20:37:10.055
33.0, -88614.63083203207, -29763.962896342626, 75826.5943320506, -18282.989356874154, -11366.15262820156, -19316.86929665438, -18560.441560797877, -80750.50482159911, -0.17400000000000002, -0.28, 0.906, 192.0, 0.0, 0.0, 0.0, 0.0, 0.0, 0.0, 0.0, 0.0, 0.0, 1.696995430055566E9, 0.0, 2023-10-10 20:37:10.055
34.0, -88619.92819546798, -29765.28164926549, 75820.00056743629, -18291.52772325608, -11375.160381217049, -19325.40766303631, -18562.989659665785, -80743.01698720659, -0.17400000000000002, -0.28, 0.906, 192.0, 0.0, 0.0, 0.0, 0.0, 0.0, 0.0, 0.0, 0.0, 0.0, 1.696995430061855E9, 0.0, 2023-10-10 20:37:10.061
35.0, -88618.36357335611, -29755.290419493966, 75823.10745991558, -18286.833856920464, -11370.86884628163, -19317.53984898804, -18552.596098494065, -80720.88876019583, -0.17400000000000002, -0.28, 0.906, 192.0, 0.0, 0.0, 0.0, 0.0, 0.0, 0.0, 0.0, 0.0, 0.0, 1.696995430061888E9, 0.0, 2023-10-10 20:37:10.061
36.0, -88624.73382052587, -29752.094120036858, 75816.2454743678, -18288.733755199166, -11372.277006182314, -19316.176392576264, -18546.225851324303, -80704.25906232109, -0.17400000000000002, -0.28, 0.906, 192.0, 0.0, 0.0, 0.0, 0.0, 0.0, 0.0, 0.0, 0.0, 0.0, 1.696995430070074E9, 0.0, 2023-10-10 20:37:10.070
37.0, -88626.25373914883, -29748.428433946185, 75811.43984930991, -18288.44318252125, -11374.445125394479, -19316.77988967656, -18539.00623786524, -80689.21633830266, -0.176, -0.28200000000000003, 0.912, 192.0, 250.0, 128.0, 247.0, 48.0, 28.0, 128.0, 0.0, 0.0, 0.0, 1.696995430070104E9, 0.0, 2023-10-10 20:37:10.070
38.0, -88639.48597186638, -29750.93182932518, 75806.09778238508, -18288.44318252125, -11379.831895808209, -19318.143346088335, -18535.00527560774, -80678.12987305282, -0.176, -0.28200000000000003, 0.912, 192.0, 0.0, 0.0, 0.0, 0.0, 0.0, 0.0, 0.0, 0.0, 0.0, 1.696995430076511E9, 0.0, 2023-10-10 20:37:10.076
39.0, -88673.61708564963, -29756.340951483366, 75798.58759624811, -18294.00876689062, -11387.319730200736, -19323.68657871325, -18535.161737818926, -80670.93261133821, -0.176, -0.28200000000000003, 0.912, 192.0, 0.0, 0.0, 0.0, 0.0, 0.0, 0.0, 0.0, 0.0, 0.0, 1.69699543007657E9, 0.0, 2023-10-10 20:37:10.076
40.0, -88683.3847979766, -29755.893916594257, 75795.43600027991, -18298.568522759502, -11391.097175013683, -19326.949933403725, -18533.44065349587, -80662.55070716748, -0.176, -0.28200000000000003, 0.912, 192.0, 0.0, 0.0, 0.0, 0.0, 0.0, 0.0, 0.0, 0.0, 0.0, 1.696995430084425E9, 0.0, 2023-10-10 20:37:10.084
41.0, -88673.4829751829, -29750.305980480432, 75792.66438396745, -18298.14383961485, -11392.170058747537, -19322.30077055702, -18525.058749325126, -80643.77524182502, -0.176, -0.28200000000000003, 0.912, 192.0, 0.0, 0.0, 0.0, 0.0, 0.0, 0.0, 0.0, 0.0, 0.0, 1.69699543008447E9, 0.0, 2023-10-10 20:37:10.084
42.0, -88683.56361193224, -29765.818091132416, 75775.76646515923, -18318.685092769276, -11413.40421598008, -19343.378465578375, -18543.789511178675, -80652.33595995141, -0.176, -0.28200000000000003, 0.912, 192.0, 0.0, 0.0, 0.0, 0.0, 0.0, 0.0, 0.0, 0.0, 0.0, 1.696995430092376E9, 0.0, 2023-10-10 20:37:10.092
43.0, -88674.82407985021, -29763.538213197975, 75775.25237503677, -18320.24971488115, -11416.73462590392, -19346.038323168556, -18542.91779314492, -80645.25045695907, -0.176, -0.28200000000000003, 0.912, 192.0, 0.0, 0.0, 0.0, 0.0, 0.0, 0.0, 0.0, 0.0, 0.0, 1.696995430092413E9, 0.0, 2023-10-10 20:37:10.092
44.0, -88682.71424564294, -29769.483777223086, 75771.02789533472, -18327.6257905514, -11425.518861474857, -19352.699143016238, -18547.946935647364, -80644.17757322521, -0.176, -0.28200000000000003, 0.912, 192.0, 0.0, 0.0, 0.0, 0.0, 0.0, 0.0, 0.0, 0.0, 0.0, 1.696995430100309E9, 0.0, 2023-10-10 20:37:10.100
45.0, -88651.84648655016, -29727.529552880475, 75790.27274731074, -18288.063202865505, -11387.677358112021, -19302.474773225164, -18492.782830331664, -80580.43039803868, -0.176, -0.28200000000000003, 0.912, 192.0, 0.0, 0.0, 0.0, 0.0, 0.0, 0.0, 0.0, 0.0, 0.0, 1.696995430100341E9, 0.0, 2023-10-10 20:37:10.100
46.0, -88661.65890236603, -29727.97658776958, 75774.85004363657, -18294.031118635074, -11391.25363722487, -19294.316386498976, -18483.015118004696, -80559.95620011762, -0.176, -0.28200000000000003, 0.914, 192.0, 250.0, 128.0, 247.0, 48.0, 28.0, 144.0, 0.0, 0.0, 0.0, 1.69699543010752E9, 0.0, 2023-10-10 20:37:10.107
47.0, -88675.7852048618, -29725.629654601773, 75770.60321219006, -18297.942673914753, -11393.645273881588, -19289.86838935237, -18478.388306902445, -80542.83476386486, -0.176, -0.28200000000000003, 0.914, 192.0, 0.0, 0.0, 0.0, 0.0, 0.0, 0.0, 0.0, 0.0, 0.0, 1.696995430115274E9, 0.0, 2023-10-10 20:37:10.115
48.0, -88706.04946685428, -29722.008672000014, 75767.74218889978, -18298.836743692966, -11393.421756437036, -19287.074421295456, -18475.169655700884, -80524.5510369004, -0.176, -0.28200000000000003, 0.914, 192.0, 0.0, 0.0, 0.0, 0.0, 0.0, 0.0, 0.0, 0.0, 0.0, 1.696995430115304E9, 0.0, 2023-10-10 20:37:10.115
49.0, -88716.08540011471, -29702.026212456967, 75770.17852904541, -18284.352813285925, -11379.183695219004, -19263.71684833966, -18453.13083566795, -80483.13325442473, -0.176, -0.28200000000000003, 0.914, 192.0, 0.0, 0.0, 0.0, 0.0, 0.0, 0.0, 0.0, 0.0, 0.0, 1.696995430123377E9, 0.0, 2023-10-10 20:37:10.123
50.0, -88741.87931321614, -29727.686015091662, 75749.0784822796, -18315.95817994573, -11409.73852988941, -19294.115220798878, -18484.155056971915, -80500.23233893304, -0.176, -0.28200000000000003, 0.914, 192.0, 0.0, 0.0, 0.0, 0.0, 0.0, 0.0, 0.0, 0.0, 0.0, 1.696995430123406E9, 0.0, 2023-10-10 20:37:10.123
51.0, -88722.41094379556, -29711.63746257275, 75760.880203352, -18303.37414781739, -11399.523782673334, -19281.084153781434, -18466.944213741328, -80471.73386475252, -0.176, -0.28200000000000003, 0.914, 192.0, 0.0, 0.0, 0.0, 0.0, 0.0, 0.0, 0.0, 0.0, 0.0, 1.696995430129537E9, 0.0, 2023-10-10 20:37:10.129
52.0, -88743.37688009464, -29719.59468359884, 75745.65866537794, -18318.081595668984, -11412.979532835428, -19290.29307249702, -18473.00153648872, -80467.1964606281, -0.176, -0.28200000000000003, 0.914, 192.0, 0.0, 0.0, 0.0, 0.0, 0.0, 0.0, 0.0, 0.0, 0.0, 1.696995430129585E9, 0.0, 2023-10-10 20:37:10.129
53.0, -88767.09208096172, -29722.567465611395, 75745.23398223329, -18323.78129050509, -11420.981457350428, -19299.367880745875, -18476.197835945826, -80461.96615242555, -0.176, -0.28200000000000003, 0.914, 192.0, 0.0, 0.0, 0.0, 0.0, 0.0, 0.0, 0.0, 0.0, 0.0, 1.696995430138546E9, 0.0, 2023-10-10 20:37:10.138
54.0, -88771.2048019415, -29699.768686266983, 75753.0794445371, -18301.5189530276, -11403.994131564396, -19273.1492844998, -18443.944268696818, -80418.22378852652, -0.176, -0.28200000000000003, 0.914, 192.0, 0.0, 0.0, 0.0, 0.0, 0.0, 0.0, 0.0, 0.0, 0.0, 1.696995430138584E9, 0.0, 2023-10-10 20:37:10.138
55.0, -88801.22319474498, -29710.050488716424, 75741.21066823133, -18317.031063679584, -11419.036855582817, -19283.945177071713, -18453.08613217904, -80414.73691639148, -0.176, -0.28200000000000003, 0.914, 192.0, 0.0, 0.0, 0.0, 0.0, 0.0, 0.0, 0.0, 0.0, 0.0, 1.69699543014468E9, 0.0, 2023-10-10 20:37:10.144
56.0, -88794.33885745273, -29686.715267505082, 75757.57214517261, -18298.90379892633, -11401.669550141043, -19262.15222622779, -18430.44381504581, -80377.85653804023, -0.17200000000000001, -0.276, 0.908, 192.0, 250.0, 160.0, 247.0, 96.0, 28.0, 96.0, 0.0, 0.0, 0.0, 1.696995430144705E9, 0.0, 2023-10-10 20:37:10.144
57.0, -88794.67413361957, -29658.59677298031, 75765.21644177633, -18273.75808641411, -11376.881465540107, -19220.980312941112, -18389.98715758171, -80318.6020634892, -0.17200000000000001, -0.276, 0.908, 192.0, 0.0, 0.0, 0.0, 0.0, 0.0, 0.0, 0.0, 0.0, 0.0, 1.696995430151646E9, 0.0, 2023-10-10 20:37:10.151
58.0, -88860.61177976272, -29678.422770312165, 75739.86956356402, -18299.28377858207, -11400.216686751448, -19237.833528260413, -18405.7451374227, -80318.69147046703, -0.17200000000000001, -0.276, 0.908, 192.0, 0.0, 0.0, 0.0, 0.0, 0.0, 0.0, 0.0, 0.0, 0.0, 1.696995430151675E9, 0.0, 2023-10-10 20:37:10.151
59.0, -88894.02763772341, -29681.037924413435, 75739.69074960837, -18308.53740078657, -11409.20208802248, -19247.064798720457, -18412.56241948157, -80311.76242968588, -0.17200000000000001, -0.276, 0.908, 192.0, 0.0, 0.0, 0.0, 0.0, 0.0, 0.0, 0.0, 0.0, 0.0, 1.696995430159357E9, 0.0, 2023-10-10 20:37:10.159
60.0, -88887.81385276484, -29674.891194688225, 75740.09308100857, -18307.129240885883, -11409.090329300205, -19243.2426504186, -18405.476916489235, -80291.17647304255, -0.17200000000000001, -0.276, 0.908, 192.0, 0.0, 0.0, 0.0, 0.0, 0.0, 0.0, 0.0, 0.0, 0.0, 1.6969954301594E9, 0.0, 2023-10-10 20:37:10.159
61.0, -88887.2774108979, -29669.951459163603, 75735.26510420622, -18306.90572344133, -11409.4926607004, -19238.727598038626, -18395.6421489289, -80271.37282745515, -0.17200000000000001, -0.276, 0.908, 192.0, 0.0, 0.0, 0.0, 0.0, 0.0, 0.0, 0.0, 0.0, 0.0, 1.696995430166155E9, 0.0, 2023-10-10 20:37:10.166
62.0, -88891.90422200016, -29669.63853474123, 75730.57123787061, -18310.3702438319, -11412.621904924144, -19240.85101376188, -18392.73642214971, -80258.45351915999, -0.17200000000000001, -0.276, 0.908, 192.0, 0.0, 0.0, 0.0, 0.0, 0.0, 0.0, 0.0, 0.0, 0.0, 1.696995430166213E9, 0.0, 2023-10-10 20:37:10.166
63.0, -88897.89448951418, -29666.933973662137, 75730.4818308928, -18310.124374642895, -11413.046588068795, -19238.973467227635, -18384.175704023328, -80240.72858580692, -0.17200000000000001, -0.276, 0.908, 192.0, 0.0, 0.0, 0.0, 0.0, 0.0, 0.0, 0.0, 0.0, 0.0, 1.696995430174138E9, 0.0, 2023-10-10 20:37:10.174
64.0, -88899.28029767041, -29645.521002473954, 75734.0804617501, -18294.053470379527, -11398.585009406212, -19216.644074516782, -18355.185491464796, -80200.94248067647, -0.17200000000000001, -0.276, 0.908, 192.0, 0.0, 0.0, 0.0, 0.0, 0.0, 0.0, 0.0, 0.0, 0.0, 1.69699543018215E9, 0.0, 2023-10-10 20:37:10.182
65.0, -88941.07805980183, -29672.477206287054, 75712.93571149537, -18330.218592908215, -11433.051399356294, -19250.842243533403, -18385.40504996837, -80220.20968439695, -0.17200000000000001, -0.276, 0.908, 192.0, 0.0, 0.0, 0.0, 0.0, 0.0, 0.0, 0.0, 0.0, 0.0, 1.696995430182182E9, 0.0, 2023-10-10 20:37:10.182
66.0, -88948.92352210564, -29672.63366849824, 75718.03190923118, -18336.164156933326, -11443.55671925029, -19260.967583771657, -18390.858875615464, -80219.40502159655, -0.17200000000000001, -0.278, 0.91, 192.0, 250.0, 160.0, 247.0, 80.0, 28.0, 112.0, 0.0, 0.0, 0.0, 1.696995430190496E9, 0.0, 2023-10-10 20:37:10.190
67.0, -88943.9390830921, -29648.62789495324, 75728.6713395919, -18312.583066532978, -11422.322562017747, -19234.503118336575, -18359.92406128932, -80177.58490772068, -0.17200000000000001, -0.278, 0.91, 192.0, 0.0, 0.0, 0.0, 0.0, 0.0, 0.0, 0.0, 0.0, 0.0, 1.696995430190574E9, 0.0, 2023-10-10 20:37:10.190
68.0, -88976.17029859667, -29645.923333874147, 75721.0270429882, -18313.968874689206, -11423.328390518236, -19229.295161878486, -18352.995020508173, -80154.65201790954, -0.17200000000000001, -0.278, 0.91, 192.0, 0.0, 0.0, 0.0, 0.0, 0.0, 0.0, 0.0, 0.0, 0.0, 1.696995430198086E9, 0.0, 2023-10-10 20:37:10.198
69.0, -88985.4015690567, -29642.548220461398, 75714.88031326298, -18315.57820028999, -11425.295344030303, -19224.42248158723, -18346.91534601633, -80133.75313684382, -0.17200000000000001, -0.278, 0.91, 192.0, 0.0, 0.0, 0.0, 0.0, 0.0, 0.0, 0.0, 0.0, 0.0, 1.696995430198113E9, 0.0, 2023-10-10 20:37:10.198
70.0, -88977.8466794308, -29646.504479229985, 75708.64417655994, -18325.01063645013, -11435.73360869093, -19232.75968226906, -18351.653915840856, -80128.18755247445, -0.17200000000000001, -0.278, 0.91, 192.0, 0.0, 0.0, 0.0, 0.0, 0.0, 0.0, 0.0, 0.0, 0.0, 1.696995430206157E9, 0.0, 2023-10-10 20:37:10.206
71.0, -88958.08773733232, -29644.135194317725, 75703.63738580197, -18325.68118878379, -11438.773445936853, -19230.926839223725, -18344.16608144833, -80109.59090108763, -0.17200000000000001, -0.278, 0.91, 192.0, 0.0, 0.0, 0.0, 0.0, 0.0, 0.0, 0.0, 0.0, 0.0, 1.696995430206187E9, 0.0, 2023-10-10 20:37:10.206
72.0, -88958.06538558786, -29653.992313622515, 75692.88619671896, -18339.807491279542, -11452.430361799046, -19241.454510862175, -18349.709314073243, -80104.87468300757, -0.17200000000000001, -0.278, 0.91, 192.0, 0.0, 0.0, 0.0, 0.0, 0.0, 0.0, 0.0, 0.0, 0.0, 1.696995430212424E9, 0.0, 2023-10-10 20:37:10.212
73.0, -88940.988652824, -29635.95445584708, 75701.4692665898, -18325.949409717254, -11439.488701759423, -19223.260190875553, -18327.335217873482, -80071.41412155797, -0.17200000000000001, -0.278, 0.91, 192.0, 0.0, 0.0, 0.0, 0.0, 0.0, 0.0, 0.0, 0.0, 0.0, 1.696995430212456E9, 0.0, 2023-10-10 20:37:10.212
74.0, -88959.33943502182, -29652.4500432551, 75680.4586268018, -18346.289497171583, -11463.740344493432, -19242.639153318305, -18343.763750048132, -80074.20808961488, -0.17200000000000001, -0.278, 0.91, 192.0, 0.0, 0.0, 0.0, 0.0, 0.0, 0.0, 0.0, 0.0, 0.0, 1.696995430219701E9, 0.0, 2023-10-10 20:37:10.219
75.0, -88957.68540593212, -29652.360636277277, 75682.02324891368, -18348.994058250675, -11470.825847485763, -19250.99870574459, -18345.283668671094, -80065.91559242197, -0.17400000000000002, -0.274, 0.91, 192.0, 250.0, 144.0, 247.0, 112.0, 28.0, 112.0, 0.0, 0.0, 0.0, 1.696995430219733E9, 0.0, 2023-10-10 20:37:10.219
76.0, -88960.61348445577, -29650.125461831747, 75674.53541452115, -18351.430398396304, -11475.631472543655, -19252.85390053438, -18342.19912793626, -80053.46567076036, -0.17400000000000002, -0.274, 0.91, 192.0, 0.0, 0.0, 0.0, 0.0, 0.0, 0.0, 0.0, 0.0, 0.0, 1.696995430227572E9, 0.0, 2023-10-10 20:37:10.227
77.0, -88974.94095265162, -29642.81644139486, 75676.32355407758, -18347.921174516818, -11475.586769054744, -19250.52931911103, -18334.219555165717, -80036.76891765224, -0.17400000000000002, -0.274, 0.91, 192.0, 0.0, 0.0, 0.0, 0.0, 0.0, 0.0, 0.0, 0.0, 0.0, 1.6969954302276E9, 0.0, 2023-10-10 20:37:10.227
78.0, -88982.54054576643, -29623.86216209676, 75682.38087682497, -18334.934810988285, -11460.052306658305, -19229.585734556407, -18306.65985425232, -79998.10039974457, -0.17400000000000002, -0.274, 0.91, 192.0, 0.0, 0.0, 0.0, 0.0, 0.0, 0.0, 0.0, 0.0, 0.0, 1.696995430233496E9, 0.0, 2023-10-10 20:37:10.233
79.0, -88973.3986822842, -29601.152789730168, 75684.2137198703, -18316.852249723943, -11440.315716304269, -19196.95218765166, -18270.494731723637, -79945.97613167479, -0.17400000000000002, -0.274, 0.91, 192.0, 0.0, 0.0, 0.0, 0.0, 0.0, 0.0, 0.0, 0.0, 0.0, 1.696995430241785E9, 0.0, 2023-10-10 20:37:10.241
80.0, -88998.76791224098, -29614.876760825726, 75661.0126091257, -18337.192337178272, -11460.387582825135, -19208.17276336822, -18283.48109525217, -79941.88576243947, -0.17400000000000002, -0.274, 0.91, 192.0, 0.0, 0.0, 0.0, 0.0, 0.0, 0.0, 0.0, 0.0, 0.0, 1.696995430241831E9, 0.0, 2023-10-10 20:37:10.241
81.0, -89020.7173252961, -29636.893229114205, 75649.36735026448, -18362.53921539059, -11487.500248849423, -19238.884060249813, -18311.174906632295, -79960.63887603747, -0.17400000000000002, -0.274, 0.91, 192.0, 0.0, 0.0, 0.0, 0.0, 0.0, 0.0, 0.0, 0.0, 0.0, 1.696995430249142E9, 0.0, 2023-10-10 20:37:10.249
82.0, -89035.60358710332, -29642.078833827836, 75652.69776018831, -18371.569320150535, -11497.89381002114, -19255.066723235457, -18320.04854918105, -79962.15879466043, -0.17400000000000002, -0.274, 0.91, 192.0, 0.0, 0.0, 0.0, 0.0, 0.0, 0.0, 0.0, 0.0, 0.0, 1.696995430249171E9, 0.0, 2023-10-10 20:37:10.249
83.0, -89032.92137776868, -29613.490952669497, 75666.64524872843, -18346.91534601633, -11474.245664387425, -19227.57407755543, -18285.828028419975, -79917.52236098319, -0.17400000000000002, -0.274, 0.91, 192.0, 0.0, 0.0, 0.0, 0.0, 0.0, 0.0, 0.0, 0.0, 0.0, 1.696995430257139E9, 0.0, 2023-10-10 20:37:10.257
84.0, -89075.43439572268, -29627.90782784317, 75648.0485973416, -18363.366229935436, -11492.75290879642, -19241.745083540092, -18296.780383203077, -79917.25414004971, -0.17400000000000002, -0.274, 0.91, 192.0, 0.0, 0.0, 0.0, 0.0, 0.0, 0.0, 0.0, 0.0, 0.0, 1.696995430257169E9, 0.0, 2023-10-10 20:37:10.257
85.0, -89093.15932907574, -29631.081775555824, 75648.31681827508, -18368.59653813798, -11503.347635668235, -19250.99870574459, -18299.842572193455, -79911.33092776906, -0.178, -0.272, 0.908, 192.0, 250.0, 112.0, 247.0, 128.0, 28.0, 96.0, 0.0, 0.0, 0.0, 1.696995430265062E9, 0.0, 2023-10-10 20:37:10.265
86.0, -89088.62192495131, -29617.938949816104, 75655.8046526676, -18362.02512526812, -11497.245609431937, -19240.202813172677, -18282.743487685144, -79887.0122298017, -0.178, -0.272, 0.908, 192.0, 0.0, 0.0, 0.0, 0.0, 0.0, 0.0, 0.0, 0.0, 0.0, 1.6969954302651E9, 0.0, 2023-10-10 20:37:10.265
87.0, -89103.86581466983, -29598.314118184346, 75660.0067806252, -18346.133034960396, -11479.207751656504, -19215.28061810501, -18253.261536748592, -79844.67802580334, -0.178, -0.272, 0.908, 192.0, 0.0, 0.0, 0.0, 0.0, 0.0, 0.0, 0.0, 0.0, 0.0, 1.69699543027355E9, 0.0, 2023-10-10 20:37:10.273
88.0, -89148.56930358044, -29603.164446731145, 75645.99223685173, -18355.856043798452, -11486.740289537942, -19218.543972795484, -18254.04384780453, -79829.16591515136, -0.178, -0.272, 0.908, 192.0, 0.0, 0.0, 0.0, 0.0, 0.0, 0.0, 0.0, 0.0, 0.0, 1.696995430273595E9, 0.0, 2023-10-10 20:37:10.273
89.0, -89147.9881582246, -29593.95552801556, 75651.356655521, -18352.615040852434, -11482.739327280442, -19209.916199435735, -18244.924336066764, -79805.45071428428, -0.178, -0.272, 0.908, 192.0, 0.0, 0.0, 0.0, 0.0, 0.0, 0.0, 0.0, 0.0, 0.0, 1.696995430281209E9, 0.0, 2023-10-10 20:37:10.281
90.0, -89151.81030652646, -29597.37534491722, 75642.1030333165, -18361.868663056932, -11492.618798329688, -19216.174687883224, -18246.533661667545, -79795.21361532374, -0.178, -0.272, 0.908, 192.0, 0.0, 0.0, 0.0, 0.0, 0.0, 0.0, 0.0, 0.0, 0.0, 1.696995430281233E9, 0.0, 2023-10-10 20:37:10.281
91.0, -89162.53914386501, -29606.919539799637, 75634.59284717952, -18374.54210216309, -11507.773281070386, -19230.971542712636, -18254.826158860466, -79792.35259203347, -0.178, -0.272, 0.908, 192.0, 0.0, 0.0, 0.0, 0.0, 0.0, 0.0, 0.0, 0.0, 0.0, 1.696995430288704E9, 0.0, 2023-10-10 20:37:10.288
92.0, -89173.55855388148, -29611.121667757234, 75636.00100708021, -18382.7898958671, -11518.323304453292, -19243.868499263346, -18261.66579266379, -79787.74813267567, -0.178, -0.272, 0.908, 192.0, 0.0, 0.0, 0.0, 0.0, 0.0, 0.0, 0.0, 0.0, 0.0, 1.696995430288899E9, 0.0, 2023-10-10 20:37:10.288
93.0, -89178.05125451699, -29604.997289776482, 75638.83967862603, -18379.01245105415, -11517.317475952803, -19240.538089339505, -18252.47922569266, -79767.11747254342, -0.178, -0.272, 0.908, 192.0, 0.0, 0.0, 0.0, 0.0, 0.0, 0.0, 0.0, 0.0, 0.0, 1.696995430297556E9, 0.0, 2023-10-10 20:37:10.297
95.0, -89184.13092900884, -29579.1810249306, 75637.38681523643, -18366.584881137, -11503.012359501405, -19208.21746685713, -18215.934123508232, -79702.8115037455, -0.17400000000000002, -0.28, 0.912, 192.0, 250.0, 144.0, 247.0, 64.0, 28.0, 128.0, 0.0, 0.0, 0.0, 1.696995430305558E9, 0.0, 2023-10-10 20:37:10.305
96.0, -89217.18915905824, -29590.04397273588, 75622.83582959602, -18385.315642990547, -11519.463243420512, -19221.069719918934, -18224.114861978873, -79700.57632929998, -0.17400000000000002, -0.28, 0.912, 192.0, 0.0, 0.0, 0.0, 0.0, 0.0, 0.0, 0.0, 0.0, 0.0, 1.69699543030559E9, 0.0, 2023-10-10 20:37:10.305
97.0, -89273.24733415215, -29614.09444976979, 75609.82711432304, -18413.59059972651, -11548.90049086815, -19256.608993602873, -18254.602641415913, -79724.80562028952, -0.17400000000000002, -0.28, 0.912, 192.0, 0.0, 0.0, 0.0, 0.0, 0.0, 0.0, 0.0, 0.0, 0.0, 1.696995430313548E9, 0.0, 2023-10-10 20:37:10.313
98.0, -89280.55635458903, -29600.549292629876, 75619.32660571655, -18402.995872854695, -11543.357258243235, -19250.886947022314, -18242.309181965495, -79706.07485843598, -0.17400000000000002, -0.28, 0.912, 192.0, 0.0, 0.0, 0.0, 0.0, 0.0, 0.0, 0.0, 0.0, 0.0, 1.696995430313575E9, 0.0, 2023-10-10 20:37:10.313
99.0, -89272.24150565166, -29590.401600647165, 75617.20318999329, -18396.715032662756, -11538.015191318416, -19243.935554496715, -18227.869955047365, -79682.58317501345, -0.17400000000000002, -0.28, 0.912, 192.0, 0.0, 0.0, 0.0, 0.0, 0.0, 0.0, 0.0, 0.0, 0.0, 1.696995430320756E9, 0.0, 2023-10-10 20:37:10.320
100.0, -89278.87997375488, -29589.14990295767, 75609.11185850047, -18400.715994920254, -11542.642002420665, -19245.61193533086, -18222.751405567098, -79669.39564578483, -0.17400000000000002, -0.28, 0.912, 192.0, 0.0, 0.0, 0.0, 0.0, 0.0, 0.0, 0.0, 0.0, 0.0, 1.696995430320818E9, 0.0, 2023-10-10 20:37:10.320
101.0, -89276.13070918688, -29581.729123798505, 75612.4422684243, -18395.6421489289, -11538.395170974156, -19237.61001081586, -18211.106146705886, -79646.61921818486, -0.17400000000000002, -0.28, 0.912, 192.0, 0.0, 0.0, 0.0, 0.0, 0.0, 0.0, 0.0, 0.0, 0.0, 1.696995430328221E9, 0.0, 2023-10-10 20:37:10.328
102.0, -89289.60881109344, -29590.15573145816, 75601.4452101523, -18409.388471768914, -11549.503987968445, -19245.67899056423, -18214.123632207353, -79637.7455756361, -0.17400000000000002, -0.28, 0.912, 192.0, 0.0, 0.0, 0.0, 0.0, 0.0, 0.0, 0.0, 0.0, 0.0, 1.696995430328244E9, 0.0, 2023-10-10 20:37:10.328
103.0, -89303.69041010027, -29595.587205360796, 75599.81353280706, -18420.11730910746, -11559.696383440065, -19258.128912225835, -18219.75627181009, -79635.93508433523, -0.17400000000000002, -0.28, 0.912, 192.0, 0.0, 0.0, 0.0, 0.0, 0.0, 0.0, 0.0, 0.0, 0.0, 1.696995430336244E9, 0.0, 2023-10-10 20:37:10.336
104.0, -89302.01402926612, -29580.388019131187, 75602.13811423042, -18412.02597761464, -11551.359182758235, -19243.309705651965, -18200.98080646763, -79606.43078165421, -0.17, -0.276, 0.906, 192.0, 250.0, 176.0, 247.0, 96.0, 28.0, 80.0, 0.0, 0.0, 0.0, 1.696995430336273E9, 0.0, 2023-10-10 20:37:10.336
105.0, -89311.40176193736, -29583.874891266216, 75595.03025949362, -18419.11148060697, -11558.064706094827, -19246.260135920067, -18198.902094233286, -79595.88075827132, -0.17, -0.276, 0.906, 192.0, 0.0, 0.0, 0.0, 0.0, 0.0, 0.0, 0.0, 0.0, 0.0, 1.696995430344408E9, 0.0, 2023-10-10 20:37:10.344
106.0, -89303.89157580037, -29551.241344361468, 75609.42478292284, -18390.21067502626, -11530.929688326083, -19209.960902924646, -18158.646602469278, -79542.0801093674, -0.17, -0.276, 0.906, 192.0, 0.0, 0.0, 0.0, 0.0, 0.0, 0.0, 0.0, 0.0, 0.0, 1.696995430344449E9, 0.0, 2023-10-10 20:37:10.344
107.0, -89326.89152084489, -29542.501812279443, 75600.77465781863, -18385.360346479458, -11527.71103712452, -19193.152391094256, -18138.574735948412, -79505.6691176497, -0.17, -0.276, 0.906, 192.0, 0.0, 0.0, 0.0, 0.0, 0.0, 0.0, 0.0, 0.0, 0.0, 1.696995430352752E9, 0.0, 2023-10-10 20:37:10.352
108.0, -89348.10332633297, -29555.84580371926, 75584.05555296606, -18407.041538601105, -11549.90631936864, -19209.04448140198, -18151.806968665955, -79504.03744030446, -0.17, -0.276, 0.906, 192.0, 0.0, 0.0, 0.0, 0.0, 0.0, 0.0, 0.0, 0.0, 0.0, 1.696995430352976E9, 0.0, 2023-10-10 20:37:10.352
109.0, -89342.69420417478, -29559.80206248785, 75585.26254716665, -18417.479803261736, -11556.768304916419, -19218.23104837311, -18157.752532691065, -79497.75660011251, -0.17, -0.276, 0.906, 192.0, 0.0, 0.0, 0.0, 0.0, 0.0, 0.0, 0.0, 0.0, 0.0, 1.696995430359437E9, 0.0, 2023-10-10 20:37:10.359
110.0, -89317.59319515148, -29531.1694778406, 75596.34901241648, -18392.244683771693, -11533.276621493891, -19183.31762353392, -18123.17438401871, -79445.47586983156, -0.17, -0.276, 0.906, 192.0, 0.0, 0.0, 0.0, 0.0, 0.0, 0.0, 0.0, 0.0, 0.0, 1.696995430367264E9, 0.0, 2023-10-10 20:37:10.367
111.0, -89344.59410245348, -29541.831259945782, 75581.59686107599, -18406.013358356162, -11547.894662367662, -19190.73840269308, -18133.38913123478, -79437.92098020566, -0.17, -0.276, 0.906, 192.0, 0.0, 0.0, 0.0, 0.0, 0.0, 0.0, 0.0, 0.0, 0.0, 1.696995430367286E9, 0.0, 2023-10-10 20:37:10.367
112.0, -89349.46678274474, -29534.343425553256, 75581.842730265, -18402.325320521035, -11545.547729199854, -19187.497399747062, -18127.935305587685, -79417.49148577351, -0.17, -0.276, 0.906, 192.0, 0.0, 0.0, 0.0, 0.0, 0.0, 0.0, 0.0, 0.0, 0.0, 1.696995430373311E9, 0.0, 2023-10-10 20:37:10.373
113.0, -89348.30449203307, -29518.384280012167, 75584.30142215508, -18392.73642214971, -11535.645906406155, -19171.314736761422, -18110.053910023442, -79383.82975862382, -0.17, -0.276, 0.906, 192.0, 0.0, 0.0, 0.0, 0.0, 0.0, 0.0, 0.0, 0.0, 0.0, 1.696995430373332E9, 0.0, 2023-10-10 20:37:10.373
114.0, -89363.36956779595, -29516.84200964475, 75576.590070318, -18402.794707154597, -11543.37960998769, -19173.88518737378, -18108.981026289588, -79371.11161602875, -0.166, -0.272, 0.918, 192.0, 250.0, 208.0, 247.0, 128.0, 28.0, 176.0, 0.0, 0.0, 0.0, 1.696995430380696E9, 0.0, 2023-10-10 20:37:10.380
115.0, -89377.11589063596, -29511.499942719933, 75578.98170697472, -18403.800535655086, -11548.229938534492, -19169.37013499381, -18100.666177352214, -79351.28561869689, -0.166, -0.272, 0.918, 192.0, 0.0, 0.0, 0.0, 0.0, 0.0, 0.0, 0.0, 0.0, 0.0, 1.696995430380729E9, 0.0, 2023-10-10 20:37:10.380
116.0, -89438.06909776558, -29543.552344268843, 75553.29955259556, -18442.22318437376, -11588.396023320678, -19210.922027936223, -18137.50185221456, -79378.91237484365, -0.166, -0.272, 0.918, 192.0, 0.0, 0.0, 0.0, 0.0, 0.0, 0.0, 0.0, 0.0, 0.0, 1.69699543038872E9, 0.0, 2023-10-10 20:37:10.388
117.0, -89457.38100497497, -29540.579562256287, 75561.27912536611, -18442.849033218507, -11591.681729755608, -19219.61685652934, -18138.55238420396, -79372.89975558517, -0.166, -0.272, 0.918, 192.0, 0.0, 0.0, 0.0, 0.0, 0.0, 0.0, 0.0, 0.0, 0.0, 1.696995430388761E9, 0.0, 2023-10-10 20:37:10.388
118.0, -89433.44228666334, -29516.08205033327, 75573.28201213862, -18418.373873039945, -11570.402869034157, -19195.208751584145, -18107.215238477616, -79328.10685969674, -0.166, -0.272, 0.918, 192.0, 0.0, 0.0, 0.0, 0.0, 0.0, 0.0, 0.0, 0.0, 0.0, 1.696995430395613E9, 0.0, 2023-10-10 20:37:10.395
119.0, -89456.10695554102, -29532.465879019008, 75553.99245667369, -18439.429216316847, -11590.541790788388, -19215.817059971938, -18123.39790146326, -79331.34786264275, -0.166, -0.272, 0.918, 192.0, 0.0, 0.0, 0.0, 0.0, 0.0, 0.0, 0.0, 0.0, 0.0, 1.696995430395637E9, 0.0, 2023-10-10 20:37:10.395
120.0, -89433.66580410789, -29507.07429731778, 75567.02352369112, -18416.384567783425, -11571.319290556823, -19190.447830015164, -18093.53597087097, -79287.67255397709, -0.166, -0.272, 0.918, 192.0, 0.0, 0.0, 0.0, 0.0, 0.0, 0.0, 0.0, 0.0, 0.0, 1.69699543040311E9, 0.0, 2023-10-10 20:37:10.403
121.0, -89434.112838997, -29506.247282772936, 75560.36270384345, -18414.574076482546, -11569.844075422774, -19179.115495576323, -18082.42715387668, -79260.62694318616, -0.166, -0.272, 0.918, 192.0, 0.0, 0.0, 0.0, 0.0, 0.0, 0.0, 0.0, 0.0, 0.0, 1.696995430403134E9, 0.0, 2023-10-10 20:37:10.403
122.0, -89424.94862377032, -29492.433904699556, 75566.12945391292, -18399.799573397588, -11555.896586882662, -19155.64616389825, -18057.77317974248, -79219.32091943275, -0.166, -0.272, 0.918, 192.0, 0.0, 0.0, 0.0, 0.0, 0.0, 0.0, 0.0, 0.0, 0.0, 1.696995430411139E9, 0.0, 2023-10-10 20:37:10.411
123.0, -89426.51324588219, -29489.304660475813, 75553.90304969586, -18399.710166419765, -11555.538958971378, -19148.270088228, -18046.999638915022, -79189.30252662928, -0.166, -0.272, 0.918, 192.0, 0.0, 0.0, 0.0, 0.0, 0.0, 0.0, 0.0, 0.0, 0.0, 1.696995430411305E9, 0.0, 2023-10-10 20:37:10.411
124.0, -89435.27512970867, -29497.01601231289, 75547.35398857045, -18413.41178577087, -11567.05010736586, -19159.378905222286, -18055.873281463777, -79181.5911747922, -0.17400000000000002, -0.266, 0.92, 192.0, 250.0, 144.0, 247.0, 176.0, 28.0, 192.0, 0.0, 0.0, 0.0, 1.696995430418339E9, 0.0, 2023-10-10 20:37:10.418
125.0, -89463.59478993354, -29506.06846881729, 75538.90502916634, -18425.97346615475, -11579.500029027466, -19172.499379217552, -18067.451485091628, -79178.2384131239, -0.17400000000000002, -0.266, 0.92, 192.0, 0.0, 0.0, 0.0, 0.0, 0.0, 0.0, 0.0, 0.0, 0.0, 1.696995430418379E9, 0.0, 2023-10-10 20:37:10.418
126.0, -89508.58885152207, -29509.532989207866, 75538.0780146215, -18433.528355780647, -11587.971340176027, -19185.932777635193, -18074.648746806233, -79173.36573283264, -0.17400000000000002, -0.266, 0.92, 192.0, 0.0, 0.0, 0.0, 0.0, 0.0, 0.0, 0.0, 0.0, 0.0, 1.696995430426451E9, 0.0, 2023-10-10 20:37:10.426
127.0, -89523.0280784402, -29491.763352365895, 75542.61541874593, -18419.93849515182, -11575.05203188086, -19169.951280349647, -18050.75473198351, -79140.01693010532, -0.17400000000000002, -0.266, 0.92, 192.0, 0.0, 0.0, 0.0, 0.0, 0.0, 0.0, 0.0, 0.0, 0.0, 1.696995430434236E9, 0.0, 2023-10-10 20:37:10.434
128.0, -89526.20202615285, -29490.578709909765, 75538.25682857714, -18423.40301554239, -11576.43784003709, -19168.61017568233, -18044.071560391374, -79122.33670024118, -0.17400000000000002, -0.266, 0.92, 192.0, 0.0, 0.0, 0.0, 0.0, 0.0, 0.0, 0.0, 0.0, 0.0, 1.696995430434263E9, 0.0, 2023-10-10 20:37:10.434
129.0, -89524.79386625218, -29493.17151226658, 75532.66889246332, -18429.259172589682, -11584.082136640804, -19169.75011464955, -18041.74697896802, -79107.53984541177, -0.17400000000000002, -0.266, 0.92, 192.0, 0.0, 0.0, 0.0, 0.0, 0.0, 0.0, 0.0, 0.0, 0.0, 1.696995430442181E9, 0.0, 2023-10-10 20:37:10.442
130.0, -89542.02706122721, -29512.2151985425, 75518.98962485667, -18453.153187412405, -11609.183145664114, -19197.55568475195, -18066.37860135777, -79119.63213916209, -0.17400000000000002, -0.266, 0.92, 192.0, 0.0, 0.0, 0.0, 0.0, 0.0, 0.0, 0.0, 0.0, 0.0, 1.696995430442225E9, 0.0, 2023-10-10 20:37:10.442
131.0, -89516.61312778153, -29476.63122136965, 75542.5260117681, -18423.89475392041, -11581.489334283988, -19166.21853902561, -18031.576935240857, -79069.92185949348, -0.17400000000000002, -0.266, 0.92, 192.0, 0.0, 0.0, 0.0, 0.0, 0.0, 0.0, 0.0, 0.0, 0.0, 1.696995430449559E9, 0.0, 2023-10-10 20:37:10.449
132.0, -89551.30303517617, -29485.32604996277, 75519.45901149024, -18439.07158840556, -11597.068500169338, -19171.04651582796, -18037.455444032603, -79059.72946402186, -0.17400000000000002, -0.266, 0.92, 192.0, 0.0, 0.0, 0.0, 0.0, 0.0, 0.0, 0.0, 0.0, 0.0, 1.696995430449595E9, 0.0, 2023-10-10 20:37:10.449
133.0, -89584.47302394784, -29512.706936920516, 75507.61258692892, -18471.07928646556, -11630.618468596753, -19209.066833146433, -18071.34068862685, -79084.47284513389, -0.17400000000000002, -0.266, 0.92, 192.0, 0.0, 0.0, 0.0, 0.0, 0.0, 0.0, 0.0, 0.0, 0.0, 1.696995430455582E9, 0.0, 2023-10-10 20:37:10.455
134.0, -89569.5867621406, -29498.26771000239, 75524.89048539287, -18459.501082837713, -11622.191860937102, -19201.914274920735, -18057.974345442577, -79063.81983325718, -0.17, -0.268, 0.924, 192.0, 250.0, 176.0, 247.0, 160.0, 28.0, 224.0, 0.0, 0.0, 0.0, 1.696995430455626E9, 0.0, 2023-10-10 20:37:10.455
135.0, -89581.45553844637, -29492.724477377473, 75522.2306278027, -18454.51664382418, -11614.97224747804, -19188.70439394765, -18042.685752235146, -79035.34371082112, -0.17, -0.268, 0.924, 192.0, 0.0, 0.0, 0.0, 0.0, 0.0, 0.0, 0.0, 0.0, 0.0, 1.696995430463381E9, 0.0, 2023-10-10 20:37:10.463
136.0, -89640.7100129974, -29507.74484965144, 75511.03240383058, -18473.64973707792, -11633.233622698024, -19210.050309902468, -18057.840234975843, -79040.70812949039, -0.17, -0.268, 0.924, 192.0, 0.0, 0.0, 0.0, 0.0, 0.0, 0.0, 0.0, 0.0, 0.0, 1.696995430463405E9, 0.0, 2023-10-10 20:37:10.463
137.0, -89661.6088940631, -29502.872169360184, 75513.55815095404, -18470.609899832, -11634.798244809896, -19210.743213980582, -18051.38058082826, -79027.56530375067, -0.17, -0.268, 0.924, 192.0, 0.0, 0.0, 0.0, 0.0, 0.0, 0.0, 0.0, 0.0, 0.0, 1.696995430471362E9, 0.0, 2023-10-10 20:37:10.471
138.0, -89653.42815559247, -29499.787628625352, 75514.16164805433, -18470.051106220617, -11634.68648608762, -19207.055176145455, -18041.27759233446, -79010.89090238702, -0.17, -0.268, 0.924, 192.0, 0.0, 0.0, 0.0, 0.0, 0.0, 0.0, 0.0, 0.0, 0.0, 1.69699543047157E9, 0.0, 2023-10-10 20:37:10.471
139.0, -89639.8606467081, -29493.216215755492, 75517.11207832243, -18470.855769021007, -11634.038285498416, -19202.428365043208, -18030.392292784727, -78991.55664343317, -0.17, -0.268, 0.924, 192.0, 0.0, 0.0, 0.0, 0.0, 0.0, 0.0, 0.0, 0.0, 0.0, 1.696995430478291E9, 0.0, 2023-10-10 20:37:10.478
140.0, -89629.06475413618, -29480.676887116064, 75522.99058711417, -18461.065704949582, -11627.10924471727, -19189.397298025764, -18010.678054175147, -78959.8395180511, -0.17, -0.268, 0.924, 192.0, 0.0, 0.0, 0.0, 0.0, 0.0, 0.0, 0.0, 0.0, 0.0, 1.696995430478331E9, 0.0, 2023-10-10 20:37:10.478
141.0, -89637.04432690673, -29480.766294093883, 75516.64269168886, -18465.468998607277, -11631.646648841697, -19189.665518959227, -18004.687786661125, -78942.65102656497, -0.17, -0.268, 0.924, 192.0, 0.0, 0.0, 0.0, 0.0, 0.0, 0.0, 0.0, 0.0, 0.0, 1.696995430485197E9, 0.0, 2023-10-10 20:37:10.485
142.0, -89647.12496365607, -29486.5106924189, 75509.49013346317, -18476.689574323842, -11640.721457090553, -19200.17083885322, -18008.599341940804, -78937.17484917342, -0.17, -0.268, 0.924, 192.0, 0.0, 0.0, 0.0, 0.0, 0.0, 0.0, 0.0, 0.0, 0.0, 1.696995430493064E9, 0.0, 2023-10-10 20:37:10.493
143.0, -89662.32414988568, -29493.015050055394, 75503.81279037152, -18487.37370817348, -11649.483340917033, -19212.643112259284, -18018.23294380104, -78935.78904101718, -0.168, -0.274, 0.914, 192.0, 250.0, 192.0, 247.0, 112.0, 28.0, 144.0, 0.0, 0.0, 0.0, 1.696995430493093E9, 0.0, 2023-10-10 20:37:10.493
144.0, -89664.7157865424, -29483.82848308426, 75510.42890673029, -18481.94223427084, -11645.862358315273, -19206.474030789617, -18009.582818696836, -78915.96304368533, -0.168, -0.274, 0.914, 192.0, 0.0, 0.0, 0.0, 0.0, 0.0, 0.0, 0.0, 0.0, 0.0, 1.696995430501154E9, 0.0, 2023-10-10 20:37:10.501
145.0, -89696.1199875021, -29484.92371856257, 75505.4221159723, -18488.84892330753, -11651.003259539993, -19206.541086022986, -18008.822859385356, -78900.62974698898, -0.168, -0.274, 0.914, 192.0, 0.0, 0.0, 0.0, 0.0, 0.0, 0.0, 0.0, 0.0, 0.0, 1.696995430501185E9, 0.0, 2023-10-10 20:37:10.501
146.0, -89726.20543553894, -29493.819712855784, 75502.91872059331, -18501.857638580517, -11664.056678301893, -19221.270885619033, -18021.093967091318, -78902.39553480096, -0.168, -0.274, 0.914, 192.0, 0.0, 0.0, 0.0, 0.0, 0.0, 0.0, 0.0, 0.0, 0.0, 1.696995430509215E9, 0.0, 2023-10-10 20:37:10.509
147.0, -89696.81289158022, -29462.706084573998, 75520.1295638239, -18474.36499290049, -11636.385218666222, -19186.737440435583, -17984.727678862535, -78853.15464176591, -0.168, -0.274, 0.914, 192.0, 0.0, 0.0, 0.0, 0.0, 0.0, 0.0, 0.0, 0.0, 0.0, 1.69699543050924E9, 0.0, 2023-10-10 20:37:10.509
148.0, -89710.8274353537, -29465.321238675268, 75504.61745317192, -18483.193931960337, -11638.955669278583, -19183.2282165561, -17980.726716605033, -78832.05459500011, -0.168, -0.274, 0.914, 192.0, 0.0, 0.0, 0.0, 0.0, 0.0, 0.0, 0.0, 0.0, 0.0, 1.696995430517066E9, 0.0, 2023-10-10 20:37:10.517
149.0, -89719.83518836918, -29465.321238675268, 75503.76808688261, -18489.698289596832, -11643.493073403011, -19184.859893901335, -17980.726716605033, -78817.92829250435, -0.168, -0.274, 0.914, 192.0, 0.0, 0.0, 0.0, 0.0, 0.0, 0.0, 0.0, 0.0, 0.0, 1.696995430517089E9, 0.0, 2023-10-10 20:37:10.517
150.0, -89726.51835996132, -29470.350381177712, 75494.06742978901, -18500.963568802308, -11654.11015201928, -19193.912350405735, -17989.734469620522, -78812.6532808129, -0.168, -0.274, 0.914, 192.0, 0.0, 0.0, 0.0, 0.0, 0.0, 0.0, 0.0, 0.0, 0.0, 1.696995430525445E9, 0.0, 2023-10-10 20:37:10.525
151.0, -89741.85165665766, -29482.152102250115, 75488.68065937527, -18515.827478865085, -11674.941977851628, -19216.04057741649, -18007.23588552903, -78821.68338557285, -0.168, -0.274, 0.914, 192.0, 0.0, 0.0, 0.0, 0.0, 0.0, 0.0, 0.0, 0.0, 0.0, 1.696995430525498E9, 0.0, 2023-10-10 20:37:10.525
152.0, -89754.92742716402, -29488.432942442054, 75487.56307215251, -18525.170508047406, -11687.101326835314, -19230.077472934423, -18015.37192051076, -78822.5551036066, -0.168, -0.274, 0.914, 192.0, 0.0, 0.0, 0.0, 0.0, 0.0, 0.0, 0.0, 0.0, 0.0, 1.696995430532605E9, 0.0, 2023-10-10 20:37:10.532
153.0, -89754.72626146392, -29481.302735960813, 75494.08978153346, -18523.225906279793, -11684.486172734043, -19229.339865367398, -18009.47105997456, -78807.6464900549, -0.168, -0.28, 0.914, 192.0, 250.0, 192.0, 247.0, 64.0, 28.0, 144.0, 0.0, 0.0, 0.0, 1.696995430532981E9, 0.0, 2023-10-10 20:37:10.532
154.0, -89740.84582815717, -29446.568125077265, 75508.08197356248, -18491.4640774088, -11651.673811873652, -19186.200998568656, -17962.130065218218, -78748.21320154825, -0.168, -0.28, 0.914, 192.0, 0.0, 0.0, 0.0, 0.0, 0.0, 0.0, 0.0, 0.0, 0.0, 1.696995430538502E9, 0.0, 2023-10-10 20:37:10.538
155.0, -89787.65038104658, -29458.25808742739, 75488.34538320845, -18509.18901076186, -11666.470666703066, -19192.861818416335, -17967.9415187766, -78738.95957934375, -0.168, -0.28, 0.914, 192.0, 0.0, 0.0, 0.0, 0.0, 0.0, 0.0, 0.0, 0.0, 0.0, 1.696995430538549E9, 0.0, 2023-10-10 20:37:10.538
156.0, -89814.76304707087, -29469.4563113995, 75486.13256050737, -18524.701121413844, -11681.066355832381, -19213.09014714839, -17982.783077094922, -78743.11700381244, -0.168, -0.28, 0.914, 192.0, 0.0, 0.0, 0.0, 0.0, 0.0, 0.0, 0.0, 0.0, 0.0, 1.696995430545242E9, 0.0, 2023-10-10 20:37:10.545
157.0, -89812.46081739197, -29466.26001194239, 75488.83712158646, -18522.935333601872, -11678.630015686753, -19210.810269213947, -17974.579986879824, -78724.05096579206, -0.168, -0.28, 0.914, 192.0, 0.0, 0.0, 0.0, 0.0, 0.0, 0.0, 0.0, 0.0, 0.0, 1.696995430553313E9, 0.0, 2023-10-10 20:37:10.553
158.0, -89811.45498889149, -29462.326104918255, 75487.49601691915, -18525.23756328077, -11681.960425610594, -19209.245647102078, -17970.243748455494, -78707.46597140623, -0.168, -0.28, 0.914, 192.0, 0.0, 0.0, 0.0, 0.0, 0.0, 0.0, 0.0, 0.0, 0.0, 1.696995430553344E9, 0.0, 2023-10-10 20:37:10.553
159.0, -89822.47439890796, -29463.06371248528, 75481.6175081274, -18530.28905752767, -11686.944864624127, -19212.12902213681, -17971.763667078456, -78695.37367765591, -0.168, -0.28, 0.914, 192.0, 0.0, 0.0, 0.0, 0.0, 0.0, 0.0, 0.0, 0.0, 0.0, 1.69699543056008E9, 0.0, 2023-10-10 20:37:10.560
160.0, -89819.7027825955, -29463.175471207556, 75480.00818252661, -18534.781758163186, -11689.895294892227, -19214.922990193725, -17971.07076300034, -78684.30956415052, -0.168, -0.28, 0.914, 192.0, 0.0, 0.0, 0.0, 0.0, 0.0, 0.0, 0.0, 0.0, 0.0, 1.696995430560155E9, 0.0, 2023-10-10 20:37:10.560
161.0, -89809.8009598018, -29453.899497258604, 75480.00818252661, -18530.51257497222, -11684.709690178597, -19206.541086022986, -17959.537262861402, -78660.95199119473, -0.168, -0.28, 0.914, 192.0, 0.0, 0.0, 0.0, 0.0, 0.0, 0.0, 0.0, 0.0, 0.0, 1.696995430567843E9, 0.0, 2023-10-10 20:37:10.567
162.0, -89831.01276528988, -29471.26680270038, 75466.23950794214, -18553.065485127627, -11705.563867755398, -19228.289333377998, -17979.87735031573, -78669.62446804339, -0.168, -0.28, 0.914, 192.0, 0.0, 0.0, 0.0, 0.0, 0.0, 0.0, 0.0, 0.0, 0.0, 1.696995430567867E9, 0.0, 2023-10-10 20:37:10.567
163.0, -89806.26938417785, -29451.82078502426, 75483.24918547264, -18538.13451983148, -11690.655254203708, -19211.257304103056, -17958.531434360913, -78637.75088045013, -0.168, -0.28400000000000003, 0.912, 192.0, 250.0, 192.0, 247.0, 32.0, 28.0, 128.0, 0.0, 0.0, 0.0, 1.696995430575943E9, 0.0, 2023-10-10 20:37:10.575
164.0, -89799.56386084127, -29442.477755841945, 75478.55531913703, -18532.56893546211, -11683.905027378205, -19197.443926029675, -17943.332248131304, -78606.36903123486, -0.168, -0.28400000000000003, 0.912, 192.0, 0.0, 0.0, 0.0, 0.0, 0.0, 0.0, 0.0, 0.0, 0.0, 1.696995430575975E9, 0.0, 2023-10-10 20:37:10.575
165.0, -89839.84170434973, -29458.682770572043, 75461.88091777336, -18556.66411598493, -11704.17805959917, -19215.2359146161, -17962.063009984853, -78610.23588302564, -0.168, -0.28400000000000003, 0.912, 192.0, 0.0, 0.0, 0.0, 0.0, 0.0, 0.0, 0.0, 0.0, 0.0, 1.696995430584386E9, 0.0, 2023-10-10 20:37:10.584
166.0, -89859.93592261506, -29474.194881224023, 75461.12095846188, -18575.417229582934, -11725.456920320621, -19243.82379577444, -17985.50998991847, -78626.15032507782, -0.168, -0.28400000000000003, 0.912, 192.0, 0.0, 0.0, 0.0, 0.0, 0.0, 0.0, 0.0, 0.0, 0.0, 1.696995430584419E9, 0.0, 2023-10-10 20:37:10.584
167.0, -89831.7503728569, -29455.374712392655, 75469.45815914372, -18556.41824679592, -11710.391844557744, -19226.32237986593, -17960.69955357308, -78591.32630721644, -0.168, -0.28400000000000003, 0.912, 192.0, 0.0, 0.0, 0.0, 0.0, 0.0, 0.0, 0.0, 0.0, 0.0, 1.696995430592071E9, 0.0, 2023-10-10 20:37:10.592
168.0, -89828.84464607772, -29458.369846149668, 75469.07817948797, -18560.70978173134, -11713.342274825845, -19226.031807188014, -17955.46924537054, -78576.52945238704, -0.168, -0.28400000000000003, 0.912, 192.0, 0.0, 0.0, 0.0, 0.0, 0.0, 0.0, 0.0, 0.0, 0.0, 1.696995430592251E9, 0.0, 2023-10-10 20:37:10.592
169.0, -89820.23922446242, -29454.92767750355, 75467.02181899808, -18558.072275885617, -11711.420024802688, -19217.113461150344, -17946.908527244155, -78554.11065269836, -0.168, -0.28400000000000003, 0.912, 192.0, 0.0, 0.0, 0.0, 0.0, 0.0, 0.0, 0.0, 0.0, 0.0, 1.696995430599135E9, 0.0, 2023-10-10 20:37:10.599
170.0, -89829.67166062257, -29466.3047154313, 75455.3095049035, -18575.32782260511, -11727.155652899224, -19234.726635781128, -17964.566405363847, -78558.44689112269, -0.168, -0.28400000000000003, 0.912, 192.0, 0.0, 0.0, 0.0, 0.0, 0.0, 0.0, 0.0, 0.0, 0.0, 1.696995430599159E9, 0.0, 2023-10-10 20:37:10.599
171.0, -89838.03121304885, -29463.30958167429, 75458.28228691606, -18578.926453462416, -11727.312115110411, -19235.62070555934, -17962.107713473764, -78546.42165260574, -0.168, -0.28400000000000003, 0.912, 192.0, 0.0, 0.0, 0.0, 0.0, 0.0, 0.0, 0.0, 0.0, 0.0, 1.696995430605621E9, 0.0, 2023-10-10 20:37:10.605
172.0, -89871.3129605428, -29474.17252947957, 75453.52136534707, -18594.572674581133, -11742.08661819537, -19251.401037144788, -17975.250539213484, -78551.71901604165, -0.18, -0.28200000000000003, 0.906, 192.0, 250.0, 96.0, 247.0, 48.0, 28.0, 80.0, 0.0, 0.0, 0.0, 1.696995430612715E9, 0.0, 2023-10-10 20:37:10.612
173.0, -89884.3216758158, -29470.3056776888, 75459.33281890546, -18593.388032125, -11743.271260651502, -19256.2960691805, -17969.483789144015, -78540.36432985835, -0.18, -0.28200000000000003, 0.906, 192.0, 0.0, 0.0, 0.0, 0.0, 0.0, 0.0, 0.0, 0.0, 0.0, 1.696995430612741E9, 0.0, 2023-10-10 20:37:10.612
174.0, -89901.62192602419, -29462.594325851718, 75460.24924042812, -18588.694165789388, -11737.593917559852, -19249.255269677076, -17953.323477902828, -78516.69383248017, -0.18, -0.28200000000000003, 0.906, 192.0, 0.0, 0.0, 0.0, 0.0, 0.0, 0.0, 0.0, 0.0, 0.0, 1.69699543062018E9, 0.0, 2023-10-10 20:37:10.620
175.0, -89913.73657151897, -29447.193973922014, 75463.69140907424, -18578.568825551134, -11725.479272065077, -19229.1386996673, -17930.435291580594, -78481.71335240762, -0.18, -0.28200000000000003, 0.906, 192.0, 0.0, 0.0, 0.0, 0.0, 0.0, 0.0, 0.0, 0.0, 0.0, 1.696995430620203E9, 0.0, 2023-10-10 20:37:10.620
176.0, -89934.2778246734, -29469.29984918831, 75448.00048446661, -18602.664006073956, -11747.652202564741, -19250.417560388752, -17950.17188193463, -78488.84355888887, -0.18, -0.28200000000000003, 0.906, 192.0, 0.0, 0.0, 0.0, 0.0, 0.0, 0.0, 0.0, 0.0, 0.0, 1.696995430628292E9, 0.0, 2023-10-10 20:37:10.628
177.0, -89913.33424011878, -29459.129805461147, 75459.1093014609, -18594.997357725784, -11740.23142340558, -19244.717865552648, -17938.034884695397, -78468.07878828989, -0.18, -0.28200000000000003, 0.906, 192.0, 0.0, 0.0, 0.0, 0.0, 0.0, 0.0, 0.0, 0.0, 0.0, 1.696995430628317E9, 0.0, 2023-10-10 20:37:10.628
178.0, -89907.07575167129, -29444.869392498662, 75456.67296131527, -18585.67668028792, -11731.84951923484, -19225.94240021019, -17913.850297194756, -78432.58421809485, -0.18, -0.28200000000000003, 0.906, 192.0, 0.0, 0.0, 0.0, 0.0, 0.0, 0.0, 0.0, 0.0, 0.0, 1.696995430636257E9, 0.0, 2023-10-10 20:37:10.636
179.0, -89924.15248443515, -29454.63710482563, 75449.1627751783, -18597.903084504975, -11743.740647285063, -19235.508946837064, -17920.93580018709, -78425.96810173609, -0.18, -0.28200000000000003, 0.906, 192.0, 0.0, 0.0, 0.0, 0.0, 0.0, 0.0, 0.0, 0.0, 0.0, 1.696995430636281E9, 0.0, 2023-10-10 20:37:10.636
180.0, -89923.77250477941, -29445.2493721544, 75451.55441183501, -18594.05858445866, -11739.538519327465, -19228.691664778195, -17910.341073315274, -78403.77281949196, -0.18, -0.28200000000000003, 0.906, 192.0, 0.0, 0.0, 0.0, 0.0, 0.0, 0.0, 0.0, 0.0, 0.0, 1.696995430642944E9, 0.0, 2023-10-10 20:37:10.642
181.0, -89915.68117328659, -29425.69159575601, 75457.05294097101, -18579.954633707363, -11724.048760419937, -19207.949245923668, -17884.569511958303, -78365.52898472894, -0.18, -0.28200000000000003, 0.906, 192.0, 0.0, 0.0, 0.0, 0.0, 0.0, 0.0, 0.0, 0.0, 0.0, 1.696995430642979E9, 0.0, 2023-10-10 20:37:10.642
182.0, -89941.51978987693, -29443.68475004253, 75437.15988840579, -18604.608607841565, -11747.115760697814, -19229.339865367398, -17901.489782510973, -78371.00516212049, -0.176, -0.28200000000000003, 0.908, 192.0, 250.0, 128.0, 247.0, 48.0, 28.0, 96.0, 0.0, 0.0, 0.0, 1.696995430651212E9, 0.0, 2023-10-10 20:37:10.651
183.0, -89956.24958947297, -29449.049168711805, 75434.29886511552, -18615.560962624666, -11760.99619400456, -19243.533223096518, -17911.21279134903, -78370.6028307203, -0.176, -0.28200000000000003, 0.908, 192.0, 0.0, 0.0, 0.0, 0.0, 0.0, 0.0, 0.0, 0.0, 0.0, 1.696995430651506E9, 0.0, 2023-10-10 20:37:10.651
184.0, -89973.46043270355, -29440.801375007795, 75440.71381577419, -18613.035215501215, -11758.671612581207, -19238.504080594073, -17903.322625556306, -78352.83319387832, -0.176, -0.28200000000000003, 0.908, 192.0, 0.0, 0.0, 0.0, 0.0, 0.0, 0.0, 0.0, 0.0, 0.0, 1.696995430658889E9, 0.0, 2023-10-10 20:37:10.658
185.0, -89980.90356360716, -29420.52834278683, 75447.35228387741, -18600.317072906146, -11744.835882763373, -19217.04640591698, -17879.070982822297, -78316.46690564953, -0.176, -0.28200000000000003, 0.908, 192.0, 0.0, 0.0, 0.0, 0.0, 0.0, 0.0, 0.0, 0.0, 0.0, 1.696995430658915E9, 0.0, 2023-10-10 20:37:10.658
186.0, -89988.63726718871, -29424.976339933437, 75434.88001047134, -18609.391881155003, -11751.988440989071, -19219.035711173503, -17879.78623864487, -78301.93827175359, -0.176, -0.28200000000000003, 0.908, 192.0, 0.0, 0.0, 0.0, 0.0, 0.0, 0.0, 0.0, 0.0, 0.0, 1.696995430665942E9, 0.0, 2023-10-10 20:37:10.665
187.0, -89996.34861902578, -29443.416529109065, 75425.82755396696, -18631.63186688803, -11774.250778466556, -19243.868499263346, -17902.093279611265, -78310.72250732452, -0.176, -0.28200000000000003, 0.908, 192.0, 0.0, 0.0, 0.0, 0.0, 0.0, 0.0, 0.0, 0.0, 0.0, 1.696995430665965E9, 0.0, 2023-10-10 20:37:10.665
188.0, -89972.52165943643, -29425.602188778186, 75434.67884477125, -18616.87971554753, -11761.175007960202, -19229.80925200096, -17881.35086075674, -78278.91597496462, -0.176, -0.28200000000000003, 0.908, 192.0, 0.0, 0.0, 0.0, 0.0, 0.0, 0.0, 0.0, 0.0, 0.0, 1.696995430673026E9, 0.0, 2023-10-10 20:37:10.673
189.0, -89979.60716242876, -29428.865543468663, 75425.38051907785, -18626.647427874497, -11768.640490608275, -19234.10078693638, -17881.507322967926, -78267.56128878132, -0.176, -0.28200000000000003, 0.908, 192.0, 0.0, 0.0, 0.0, 0.0, 0.0, 0.0, 0.0, 0.0, 0.0, 1.696995430680561E9, 0.0, 2023-10-10 20:37:10.680
190.0, -89975.49444144899, -29419.67897649753, 75428.53211504604, -18622.110023750072, -11766.584130118386, -19226.94822871068, -17870.756133884923, -78247.28825656036, -0.176, -0.28200000000000003, 0.908, 192.0, 0.0, 0.0, 0.0, 0.0, 0.0, 0.0, 0.0, 0.0, 0.0, 1.696995430680584E9, 0.0, 2023-10-10 20:37:10.680
191.0, -89979.85303161776, -29418.092002641202, 75426.90043770081, -18622.110023750072, -11766.338260929379, -19221.315589107944, -17863.11183728121, -78226.52348596138, -0.176, -0.28200000000000003, 0.908, 192.0, 0.0, 0.0, 0.0, 0.0, 0.0, 0.0, 0.0, 0.0, 0.0, 1.696995430690085E9, 0.0, 2023-10-10 20:37:10.690
192.0, -89989.21841254455, -29413.711060727965, 75426.74397548962, -18622.86998306155, -11767.120571985313, -19218.789841984493, -17857.903880823123, -78208.23975899693, -0.178, -0.28200000000000003, 0.906, 192.0, 250.0, 112.0, 247.0, 48.0, 28.0, 80.0, 0.0, 0.0, 0.0, 1.696995430690109E9, 0.0, 2023-10-10 20:37:10.690
193.0, -90013.6488692342, -29416.326214829234, 75417.89268468531, -18629.419044186958, -11776.038918022981, -19224.556592053963, -17860.943718069044, -78201.69069787154, -0.178, -0.28200000000000003, 0.906, 192.0, 0.0, 0.0, 0.0, 0.0, 0.0, 0.0, 0.0, 0.0, 0.0, 1.69699543069641E9, 0.0, 2023-10-10 20:37:10.696
194.0, -90057.68180581115, -29429.78196499133, 75410.42720203724, -18647.54630894021, -11797.183668277701, -19248.80823478797, -17879.562721200316, -78211.77133462088, -0.178, -0.28200000000000003, 0.906, 192.0, 0.0, 0.0, 0.0, 0.0, 0.0, 0.0, 0.0, 0.0, 0.0, 1.696995430696448E9, 0.0, 2023-10-10 20:37:10.696
195.0, -90042.84024749283, -29401.39524953309, 75427.95096969021, -18621.506526649777, -11772.149714487758, -19216.264094861042, -17845.85629056171, -78164.07271195325, -0.178, -0.28200000000000003, 0.906, 192.0, 0.0, 0.0, 0.0, 0.0, 0.0, 0.0, 0.0, 0.0, 0.0, 1.696995430703214E9, 0.0, 2023-10-10 20:37:10.703
196.0, -90045.94713997211, -29408.68191822552, 75414.80814395049, -18633.710579122377, -11781.649205881264, -19219.57215304043, -17849.410217930104, -78153.61209554817, -0.178, -0.28200000000000003, 0.906, 192.0, 0.0, 0.0, 0.0, 0.0, 0.0, 0.0, 0.0, 0.0, 0.0, 1.696995430703247E9, 0.0, 2023-10-10 20:37:10.703
197.0, -90048.49523884001, -29409.39717404809, 75408.25908282508, -18640.5502129257, -11787.460659439643, -19223.729577509115, -17848.694962107536, -78140.446918064, -0.178, -0.28200000000000003, 0.906, 192.0, 0.0, 0.0, 0.0, 0.0, 0.0, 0.0, 0.0, 0.0, 0.0, 1.696995430711412E9, 0.0, 2023-10-10 20:37:10.711
198.0, -90048.71875628456, -29398.33306054271, 75412.70707997169, -18635.386959956522, -11779.838714580383, -19210.85497270286, -17833.272258433375, -78110.42852526052, -0.178, -0.28200000000000003, 0.906, 192.0, 0.0, 0.0, 0.0, 0.0, 0.0, 0.0, 0.0, 0.0, 0.0, 1.696995430711729E9, 0.0, 2023-10-10 20:37:10.711
199.0, -90073.9091722857, -29412.504066527377, 75395.58564371892, -18653.514224709776, -11795.708453143652, -19224.020150187036, -17845.00692427241, -78108.52862698182, -0.178, -0.28200000000000003, 0.906, 192.0, 0.0, 0.0, 0.0, 0.0, 0.0, 0.0, 0.0, 0.0, 0.0, 1.696995430718628E9, 0.0, 2023-10-10 20:37:10.718
200.0, -90085.12974800226, -29425.2445608669, 75391.40586750577, -18670.814474918185, -11814.640380697296, -19249.031752232524, -17863.760037870412, -78118.49750500888, -0.178, -0.28200000000000003, 0.906, 192.0, 0.0, 0.0, 0.0, 0.0, 0.0, 0.0, 0.0, 0.0, 0.0, 1.696995430718674E9, 0.0, 2023-10-10 20:37:10.718
201.0, -90071.02579725097, -29416.169752618047, 75393.30576578448, -18662.410219002988, -11810.572363206431, -19243.175595185232, -17852.651220876127, -78095.81048438675, -0.178, -0.28200000000000003, 0.906, 192.0, 0.0, 0.0, 0.0, 0.0, 0.0, 0.0, 0.0, 0.0, 0.0, 1.696995430725896E9, 0.0, 2023-10-10 20:37:10.725
202.0, -90066.42133789317, -29405.932653657517, 75395.51858848556, -18655.07884682165, -11804.783261392506, -19233.541993324994, -17840.648334103626, -78069.6812951185, -0.168, -0.28400000000000003, 0.906, 192.0, 250.0, 192.0, 247.0, 32.0, 28.0, 80.0, 0.0, 0.0, 0.0, 1.696995430725932E9, 0.0, 2023-10-10 20:37:10.725
203.0, -90084.83917532435, -29401.842284422197, 75385.25913778057, -18655.212957288382, -11805.833793381906, -19223.774280998026, -17829.740682809435, -78043.44034712797, -0.168, -0.28400000000000003, 0.906, 192.0, 0.0, 0.0, 0.0, 0.0, 0.0, 0.0, 0.0, 0.0, 0.0, 1.69699543073281E9, 0.0, 2023-10-10 20:37:10.732
204.0, -90134.34828929286, -29427.16681089006, 75370.8869660958, -18683.756134957806, -11832.052389627981, -19255.29024068001, -17856.16044475561, -78059.86887930261, -0.168, -0.28400000000000003, 0.906, 192.0, 0.0, 0.0, 0.0, 0.0, 0.0, 0.0, 0.0, 0.0, 0.0, 1.696995430740932E9, 0.0, 2023-10-10 20:37:10.740
205.0, -90137.23166432758, -29420.662453253564, 75372.18336727422, -18682.951472157416, -11832.387665794811, -19256.34077266941, -17851.332467953263, -78045.04967272874, -0.168, -0.28400000000000003, 0.906, 192.0, 0.0, 0.0, 0.0, 0.0, 0.0, 0.0, 0.0, 0.0, 0.0, 1.696995430740961E9, 0.0, 2023-10-10 20:37:10.740
206.0, -90116.55630070643, -29408.167828103047, 75371.62457366283, -18673.18375983045, -11826.129177347324, -19242.728560296127, -17833.76399681139, -78015.165390392, -0.168, -0.28400000000000003, 0.906, 192.0, 0.0, 0.0, 0.0, 0.0, 0.0, 0.0, 0.0, 0.0, 0.0, 1.696995430748893E9, 0.0, 2023-10-10 20:37:10.748
207.0, -90121.9207193757, -29420.05895615327, 75354.21256473215, -18690.70752748341, -11843.72000023365, -19257.704229081184, -17844.314020194295, -78014.78541073625, -0.168, -0.28400000000000003, 0.906, 192.0, 0.0, 0.0, 0.0, 0.0, 0.0, 0.0, 0.0, 0.0, 0.0, 1.696995430748917E9, 0.0, 2023-10-10 20:37:10.748
208.0, -90113.02472508249, -29413.19697060549, 75355.55366939947, -18687.868855937584, -11843.652945000285, -19254.776150557536, -17835.730950323457, -77996.47933202736, -0.168, -0.28400000000000003, 0.906, 192.0, 0.0, 0.0, 0.0, 0.0, 0.0, 0.0, 0.0, 0.0, 0.0, 1.696995430755524E9, 0.0, 2023-10-10 20:37:10.755
209.0, -90110.92366110369, -29407.094944369193, 75352.67029436473, -18686.013661147794, -11841.14954962129, -19246.975391742635, -17824.398615884616, -77971.53478521523, -0.168, -0.28400000000000003, 0.906, 192.0, 0.0, 0.0, 0.0, 0.0, 0.0, 0.0, 0.0, 0.0, 0.0, 1.696995430755556E9, 0.0, 2023-10-10 20:37:10.755
210.0, -90133.18599858118, -29431.190124892015, 75333.22427668862, -18718.155469674526, -11868.597491812408, -19279.96656655867, -17851.332467953263, -77988.74562844583, -0.168, -0.28400000000000003, 0.906, 192.0, 0.0, 0.0, 0.0, 0.0, 0.0, 0.0, 0.0, 0.0, 0.0, 1.696995430763486E9, 0.0, 2023-10-10 20:37:10.763
211.0, -90101.69239064364, -29403.071630367238, 75354.57019264343, -18691.288672839248, -11843.831758955928, -19253.23388019012, -17817.11194719219, -77945.96438955837, -0.17400000000000002, -0.272, 0.918, 192.0, 250.0, 144.0, 247.0, 128.0, 28.0, 176.0, 0.0, 0.0, 0.0, 1.69699543076351E9, 0.0, 2023-10-10 20:37:10.763
212.0, -90091.3211812164, -29375.981316087404, 75354.61489613235, -18666.83586440514, -11818.082549343413, -19208.731556979605, -17771.559091992272, -77881.81488297164, -0.17400000000000002, -0.272, 0.918, 192.0, 0.0, 0.0, 0.0, 0.0, 0.0, 0.0, 0.0, 0.0, 0.0, 1.696995430770891E9, 0.0, 2023-10-10 20:37:10.770
213.0, -90151.00033891205, -29406.33498505771, 75328.21748593063, -18703.023338678282, -11852.884215460326, -19240.0910544504, -17799.409365583582, -77894.42126684442, -0.17400000000000002, -0.272, 0.918, 192.0, 0.0, 0.0, 0.0, 0.0, 0.0, 0.0, 0.0, 0.0, 0.0, 1.696995430770916E9, 0.0, 2023-10-10 20:37:10.770
214.0, -90164.56784779642, -29399.71886869894, 75332.75489005505, -18703.023338678282, -11855.231148628134, -19240.806310272972, -17794.33551959223, -77879.378542826, -0.17400000000000002, -0.272, 0.918, 192.0, 0.0, 0.0, 0.0, 0.0, 0.0, 0.0, 0.0, 0.0, 0.0, 1.696995430778255E9, 0.0, 2023-10-10 20:37:10.778
215.0, -90152.96729242412, -29387.06778133724, 75337.44875639067, -18693.300329840225, -11847.318631090955, -19226.76941475504, -17776.297661816796, -77849.04722560015, -0.17400000000000002, -0.272, 0.918, 192.0, 0.0, 0.0, 0.0, 0.0, 0.0, 0.0, 0.0, 0.0, 0.0, 1.696995430778313E9, 0.0, 2023-10-10 20:37:10.778
216.0, -90144.04894638645, -29368.068798550226, 75340.66740759223, -18679.21873083338, -11832.477072772632, -19198.047423129967, -17746.65924866906, -77803.38261167797, -0.17400000000000002, -0.272, 0.918, 192.0, 0.0, 0.0, 0.0, 0.0, 0.0, 0.0, 0.0, 0.0, 0.0, 1.696995430786163E9, 0.0, 2023-10-10 20:37:10.786
217.0, -90166.44539433067, -29381.971583601426, 75321.04257596047, -18700.11761189909, -11851.67722125974, -19209.983254669103, -17758.438617997006, -77799.40400116492, -0.17400000000000002, -0.272, 0.918, 192.0, 0.0, 0.0, 0.0, 0.0, 0.0, 0.0, 0.0, 0.0, 0.0, 1.696995430786186E9, 0.0, 2023-10-10 20:37:10.786
218.0, -90179.20824041465, -29386.82191214823, 75317.533352081, -18710.913504471006, -11863.724811521151, -19220.913257707747, -17767.044039612298, -77794.21839645128, -0.17400000000000002, -0.272, 0.918, 192.0, 0.0, 0.0, 0.0, 0.0, 0.0, 0.0, 0.0, 0.0, 0.0, 1.696995430793322E9, 0.0, 2023-10-10 20:37:10.793
219.0, -90190.9876097426, -29389.95115637197, 75312.70537527865, -18717.931952229974, -11873.470172103665, -19228.222278144633, -17770.776780936336, -77786.88702426995, -0.17400000000000002, -0.272, 0.918, 192.0, 0.0, 0.0, 0.0, 0.0, 0.0, 0.0, 0.0, 0.0, 0.0, 1.696995430800495E9, 0.0, 2023-10-10 20:37:10.800
220.0, -90192.21695568765, -29387.268947037333, 75311.65484328925, -18719.340112130656, -11879.035756473037, -19229.272810134033, -17764.875920400133, -77773.76655027468, -0.17400000000000002, -0.272, 0.918, 192.0, 0.0, 0.0, 0.0, 0.0, 0.0, 0.0, 0.0, 0.0, 0.0, 1.696995430800519E9, 0.0, 2023-10-10 20:37:10.800
221.0, -90191.4346446317, -29385.503159225365, 75314.26999739051, -18721.351769131634, -11882.746146052617, -19231.955019468667, -17759.444446497495, -77760.69077976832, -0.17200000000000001, -0.26, 0.914, 192.0, 250.0, 160.0, 247.0, 224.0, 28.0, 144.0, 0.0, 0.0, 0.0, 1.696995430808461E9, 0.0, 2023-10-10 20:37:10.808
222.0, -90192.6416388323, -29369.56636542873, 75317.91333173672, -18709.393585848044, -11869.91624473527, -19208.79861221297, -17731.393007206083, -77720.03295660412, -0.17200000000000001, -0.26, 0.914, 192.0, 0.0, 0.0, 0.0, 0.0, 0.0, 0.0, 0.0, 0.0, 0.0, 1.696995430808484E9, 0.0, 2023-10-10 20:37:10.808
223.0, -90231.55602592898, -29376.51775795433, 75308.19032289866, -18721.642341809555, -11879.885122762338, -19217.09110940589, -17735.818652608235, -77711.51694196665, -0.17200000000000001, -0.26, 0.914, 192.0, 0.0, 0.0, 0.0, 0.0, 0.0, 0.0, 0.0, 0.0, 0.0, 1.696995430815696E9, 0.0, 2023-10-10 20:37:10.815
224.0, -90241.7484214006, -29370.281621251303, 75313.10770667884, -18719.742443530853, -11876.577064582953, -19209.08918489089, -17726.743844359382, -77690.86393008995, -0.17200000000000001, -0.26, 0.914, 192.0, 0.0, 0.0, 0.0, 0.0, 0.0, 0.0, 0.0, 0.0, 0.0, 1.696995430815723E9, 0.0, 2023-10-10 20:37:10.815
225.0, -90245.07883132444, -29375.690743409486, 75303.45175307414, -18729.979542491383, -11885.003672242603, -19214.163030882246, -17729.94014381649, -77681.16327299635, -0.17200000000000001, -0.26, 0.914, 192.0, 0.0, 0.0, 0.0, 0.0, 0.0, 0.0, 0.0, 0.0, 0.0, 1.696995430824632E9, 0.0, 2023-10-10 20:37:10.824
226.0, -90254.33245352894, -29389.235900549404, 75297.26031986003, -18744.731693831887, -11899.822878816472, -19232.402054357775, -17745.36284749065, -77684.5383864091, -0.17200000000000001, -0.26, 0.914, 192.0, 0.0, 0.0, 0.0, 0.0, 0.0, 0.0, 0.0, 0.0, 0.0, 1.696995430824661E9, 0.0, 2023-10-10 20:37:10.824
227.0, -90255.94177912972, -29389.884101138607, 75296.50036054854, -18749.2243944674, -11904.248524218623, -19236.42536835973, -17745.11697830164, -77675.91061304935, -0.17200000000000001, -0.26, 0.914, 192.0, 0.0, 0.0, 0.0, 0.0, 0.0, 0.0, 0.0, 0.0, 0.0, 1.696995430831077E9, 0.0, 2023-10-10 20:37:10.831
228.0, -90257.1040698414, -29381.748066156873, 75300.92600595069, -18744.865804298617, -11902.259218962101, -19227.37291185533, -17729.046074038277, -77655.12349070591, -0.17200000000000001, -0.26, 0.914, 192.0, 0.0, 0.0, 0.0, 0.0, 0.0, 0.0, 0.0, 0.0, 0.0, 1.696995430831111E9, 0.0, 2023-10-10 20:37:10.831
229.0, -90274.49372702763, -29388.05125809327, 75295.91921519271, -18754.320592203214, -11914.463271434697, -19233.385531113807, -17729.89544032758, -77647.56860108001, -0.17200000000000001, -0.26, 0.914, 192.0, 0.0, 0.0, 0.0, 0.0, 0.0, 0.0, 0.0, 0.0, 0.0, 1.696995430839656E9, 0.0, 2023-10-10 20:37:10.839
230.0, -90279.6569799968, -29382.35156325717, 75299.45079081664, -18753.292411958268, -11913.412739445299, -19231.955019468667, -17723.16756524653, -77629.21781888221, -0.17200000000000001, -0.26, 0.914, 192.0, 0.0, 0.0, 0.0, 0.0, 0.0, 0.0, 0.0, 0.0, 0.0, 1.696995430839697E9, 0.0, 2023-10-10 20:37:10.839
231.0, -90280.77456721957, -29363.509042681344, 75307.34095660936, -18737.04269373926, -11897.475945648664, -19211.927856436712, -17696.70309981145, -77589.90110038532, -0.168, -0.262, 0.924, 192.0, 250.0, 192.0, 247.0, 208.0, 28.0, 224.0, 0.0, 0.0, 0.0, 1.696995430845856E9, 0.0, 2023-10-10 20:37:10.845
232.0, -90304.82504425348, -29372.449740463468, 75293.10289539133, -18750.990182279373, -11911.490489422142, -19217.42638557272, -17700.16762020202, -77577.18295779025, -0.168, -0.262, 0.924, 192.0, 0.0, 0.0, 0.0, 0.0, 0.0, 0.0, 0.0, 0.0, 0.0, 1.69699543084588E9, 0.0, 2023-10-10 20:37:10.845
233.0, -90333.65879460082, -29380.85399637866, 75289.68307848967, -18766.502292931353, -11925.728550640173, -19231.016246201547, -17709.890629040077, -77575.35011474493, -0.168, -0.262, 0.924, 192.0, 0.0, 0.0, 0.0, 0.0, 0.0, 0.0, 0.0, 0.0, 0.0, 1.696995430852832E9, 0.0, 2023-10-10 20:37:10.852
234.0, -90343.82883832799, -29373.075589308213, 75292.23117735758, -18764.200063252458, -11922.35343722742, -19225.65182753227, -17699.0276812348, -77552.81955633397, -0.168, -0.262, 0.924, 192.0, 0.0, 0.0, 0.0, 0.0, 0.0, 0.0, 0.0, 0.0, 0.0, 1.696995430861015E9, 0.0, 2023-10-10 20:37:10.861
235.0, -90327.33325091997, -29354.14366175457, 75301.48479956208, -18750.252574712347, -11908.897687065326, -19207.2339901011, -17677.25708213533, -77516.96735822766, -0.168, -0.262, 0.924, 192.0, 0.0, 0.0, 0.0, 0.0, 0.0, 0.0, 0.0, 0.0, 0.0, 1.696995430861054E9, 0.0, 2023-10-10 20:37:10.861
236.0, -90330.73071607717, -29345.29237095027, 75296.96974718211, -18744.932859531982, -11902.661550362296, -19188.90555964775, -17658.861596448613, -77480.80223569897, -0.168, -0.262, 0.924, 192.0, 0.0, 0.0, 0.0, 0.0, 0.0, 0.0, 0.0, 0.0, 0.0, 1.696995430867917E9, 0.0, 2023-10-10 20:37:10.867
237.0, -90349.70734711974, -29352.936667553982, 75291.4712180461, -18757.829816082696, -11912.719835367185, -19194.761716695037, -17663.10842789512, -77469.46990126013, -0.168, -0.262, 0.924, 192.0, 0.0, 0.0, 0.0, 0.0, 0.0, 0.0, 0.0, 0.0, 0.0, 1.696995430867946E9, 0.0, 2023-10-10 20:37:10.867
238.0, -90348.25448373014, -29345.649998861554, 75296.76858148201, -18755.706400359442, -11911.602248144418, -19190.336071292888, -17655.17355861349, -77447.40872948275, -0.168, -0.262, 0.924, 192.0, 0.0, 0.0, 0.0, 0.0, 0.0, 0.0, 0.0, 0.0, 0.0, 1.696995430875431E9, 0.0, 2023-10-10 20:37:10.875
239.0, -90350.46730643122, -29344.08537674968, 75289.25839534502, -18763.261289985334, -11919.224193003678, -19191.78893468248, -17653.16190161251, -77430.86843858582, -0.168, -0.262, 0.924, 192.0, 0.0, 0.0, 0.0, 0.0, 0.0, 0.0, 0.0, 0.0, 0.0, 1.696995430875477E9, 0.0, 2023-10-10 20:37:10.875
240.0, -90351.0261000426, -29343.05719650474, 75285.79387495446, -18773.498388945867, -11927.963725085703, -19197.533333007497, -17656.44760804744, -77420.87720881429, -0.166, -0.27, 0.918, 192.0, 250.0, 208.0, 247.0, 144.0, 28.0, 176.0, 0.0, 0.0, 0.0, 1.696995430884087E9, 0.0, 2023-10-10 20:37:10.884
241.0, -90357.75397512365, -29340.978484270396, 75286.77735171048, -18779.734525648895, -11933.439902477254, -19201.46724003163, -17659.26392784881, -77409.47781914209, -0.166, -0.27, 0.918, 192.0, 0.0, 0.0, 0.0, 0.0, 0.0, 0.0, 0.0, 0.0, 0.0, 1.69699543088414E9, 0.0, 2023-10-10 20:37:10.884
242.0, -90370.53917295208, -29313.23996940136, 75301.8200757289, -18756.265193970823, -11909.858812076905, -19170.331260005387, -17626.675084432973, -77360.34868482933, -0.166, -0.27, 0.918, 192.0, 0.0, 0.0, 0.0, 0.0, 0.0, 0.0, 0.0, 0.0, 0.0, 1.696995430892344E9, 0.0, 2023-10-10 20:37:10.892
243.0, -90412.62750776143, -29334.13885046707, 75279.71420046261, -18782.975528594914, -11935.518614711596, -19195.387565539786, -17650.747913211337, -77367.52359479948, -0.166, -0.27, 0.918, 192.0, 0.0, 0.0, 0.0, 0.0, 0.0, 0.0, 0.0, 0.0, 0.0, 1.696995430892376E9, 0.0, 2023-10-10 20:37:10.892
244.0, -90388.06294060504, -29322.04655671675, 75291.06888664591, -18774.839493613184, -11930.221251275689, -19190.067850359424, -17641.9636776404, -77345.21655383307, -0.166, -0.27, 0.918, 192.0, 0.0, 0.0, 0.0, 0.0, 0.0, 0.0, 0.0, 0.0, 0.0, 1.696995430898748E9, 0.0, 2023-10-10 20:37:10.898
245.0, -90376.37297825492, -29316.905655492028, 75288.18551161117, -18776.873502358616, -11931.048265820536, -19186.08923984638, -17638.20858457191, -77323.13303031123, -0.166, -0.27, 0.918, 192.0, 0.0, 0.0, 0.0, 0.0, 0.0, 0.0, 0.0, 0.0, 0.0, 1.696995430898784E9, 0.0, 2023-10-10 20:37:10.898
246.0, -90378.09406257798, -29328.61796958661, 75279.17775859569, -18794.509028733853, -11947.096818339447, -19201.958978409646, -17653.29601207924, -77323.35654775579, -0.166, -0.27, 0.918, 192.0, 0.0, 0.0, 0.0, 0.0, 0.0, 0.0, 0.0, 0.0, 0.0, 1.696995430906331E9, 0.0, 2023-10-10 20:37:10.906
247.0, -90378.54109746708, -29318.04559445925, 75286.57618601038, -18787.736450163895, -11940.12307406939, -19195.499324262062, -17642.276602062775, -77296.4450474316, -0.166, -0.27, 0.918, 192.0, 0.0, 0.0, 0.0, 0.0, 0.0, 0.0, 0.0, 0.0, 0.0, 1.696995430906367E9, 0.0, 2023-10-10 20:37:10.906
248.0, -90420.60708053198, -29333.17772545549, 75271.6675724587, -18810.691691719498, -11960.910196412826, -19218.611028028852, -17660.470922049397, -77301.67535563414, -0.166, -0.27, 0.918, 192.0, 0.0, 0.0, 0.0, 0.0, 0.0, 0.0, 0.0, 0.0, 0.0, 1.696995430912998E9, 0.0, 2023-10-10 20:37:10.912
249.0, -90423.78102824463, -29322.113611950113, 75276.9649358946, -18804.67907246102, -11955.903405654837, -19212.0843186479, -17650.367933555597, -77279.81534955685, -0.166, -0.27, 0.918, 192.0, 0.0, 0.0, 0.0, 0.0, 0.0, 0.0, 0.0, 0.0, 0.0, 1.696995430913028E9, 0.0, 2023-10-10 20:37:10.913
250.0, -90446.93743550032, -29328.126231208593, 75266.99605786754, -18816.503145277875, -11968.152161616346, -19224.04250193149, -17658.83924470416, -77275.81438729935, -0.17200000000000001, -0.274, 0.91, 192.0, 250.0, 160.0, 247.0, 112.0, 28.0, 112.0, 0.0, 0.0, 0.0, 1.696995430921065E9, 0.0, 2023-10-10 20:37:10.921
251.0, -90474.0053980357, -29328.90854226453, 75271.13113059178, -18822.560468025265, -11974.209484363733, -19231.597391557385, -17663.0190209173, -77269.46649187405, -0.17200000000000001, -0.274, 0.91, 192.0, 0.0, 0.0, 0.0, 0.0, 0.0, 0.0, 0.0, 0.0, 0.0, 1.696995430927726E9, 0.0, 2023-10-10 20:37:10.927
252.0, -90502.14624430492, -29322.225370672393, 75273.38865678175, -18818.73831972341, -11970.56615001752, -19223.394301342287, -17651.284355078264, -77245.70658751806, -0.17200000000000001, -0.274, 0.91, 192.0, 0.0, 0.0, 0.0, 0.0, 0.0, 0.0, 0.0, 0.0, 0.0, 1.696995430927759E9, 0.0, 2023-10-10 20:37:10.927
253.0, -90512.87508164348, -29313.79876301274, 75279.75890395152, -18814.312674321256, -11965.872283681903, -19215.459432060652, -17638.342695038642, -77221.43259303959, -0.17200000000000001, -0.274, 0.91, 192.0, 0.0, 0.0, 0.0, 0.0, 0.0, 0.0, 0.0, 0.0, 0.0, 1.696995430935549E9, 0.0, 2023-10-10 20:37:10.935
254.0, -90487.66231389789, -29284.294460331734, 75283.96103190912, -18790.61982519863, -11941.061847336514, -19177.930853120193, -17600.38943295353, -77163.29570571134, -0.17200000000000001, -0.274, 0.91, 192.0, 0.0, 0.0, 0.0, 0.0, 0.0, 0.0, 0.0, 0.0, 0.0, 1.696995430935577E9, 0.0, 2023-10-10 20:37:10.935
255.0, -90514.77497992218, -29313.03880370126, 75257.72008391858, -18827.3437413387, -11974.768277975116, -19212.598408770373, -17635.995761870832, -77181.28885999786, -0.17200000000000001, -0.274, 0.91, 192.0, 0.0, 0.0, 0.0, 0.0, 0.0, 0.0, 0.0, 0.0, 0.0, 1.696995430943601E9, 0.0, 2023-10-10 20:37:10.943
0.0, -90517.21132006781, -29319.029071215282, 75259.93290661967, -18840.10658742268, -11987.128792658901, -19229.04929268948, -17650.63615448906, -77185.91567110011, -0.17200000000000001, -0.274, 0.91, 192.0, 0.0, 0.0, 0.0, 0.0, 0.0, 0.0, 0.0, 0.0, 0.0, 1.696995430943633E9, 0.0, 2023-10-10 20:37:10.943
1.0, -90513.07624734358, -29312.770582767796, 75265.09615958884, -18836.01621818736, -11984.93832170228, -19226.32237986593, -17643.617706730092, -77169.12951101417, -0.17200000000000001, -0.274, 0.91, 192.0, 0.0, 0.0, 0.0, 0.0, 0.0, 0.0, 0.0, 0.0, 0.0, 1.696995430950889E9, 0.0, 2023-10-10 20:37:10.950
2.0, -90508.24827054123, -29300.343012850644, 75266.0125811115, -18825.73441573792, -11979.193923377266, -19214.922990193725, -17628.01618910029, -77142.59799034572, -0.17200000000000001, -0.274, 0.91, 192.0, 0.0, 0.0, 0.0, 0.0, 0.0, 0.0, 0.0, 0.0, 0.0, 1.696995430950963E9, 0.0, 2023-10-10 20:37:10.950
3.0, -90541.48531454627, -29329.08735622017, 75243.92905758966, -18860.312564410277, -12012.1850981933, -19250.305801666476, -17660.69443949395, -77165.0614935233, -0.17200000000000001, -0.274, 0.91, 192.0, 0.0, 0.0, 0.0, 0.0, 0.0, 0.0, 0.0, 0.0, 0.0, 1.696995430958228E9, 0.0, 2023-10-10 20:37:10.958
4.0, -90536.45617204382, -29321.71128054992, 75250.4110634817, -18857.138616697626, -12007.491231857686, -19246.28248766452, -17652.848977190137, -77148.81177530429, -0.162, -0.268, 0.914, 192.0, 250.0, 240.0, 247.0, 160.0, 28.0, 144.0, 0.0, 0.0, 0.0, 1.696995430958252E9, 0.0, 2023-10-10 20:37:10.958
5.0, -90528.40954403991, -29306.914425720504, 75257.94360136313, -18842.76644501286, -11993.007301450647, -19229.1386996673, -17630.765453668293, -77116.73702201093, -0.162, -0.268, 0.914, 192.0, 0.0, 0.0, 0.0, 0.0, 0.0, 0.0, 0.0, 0.0, 0.0, 1.696995430966338E9, 0.0, 2023-10-10 20:37:10.966
6.0, -90561.98186421179, -29305.126286164083, 75252.33331350486, -18847.169738670556, -11996.22595265221, -19227.104690921868, -17623.612895442595, -77097.73803922391, -0.162, -0.268, 0.914, 192.0, 0.0, 0.0, 0.0, 0.0, 0.0, 0.0, 0.0, 0.0, 0.0, 1.696995430966379E9, 0.0, 2023-10-10 20:37:10.966
7.0, -90589.65332384745, -29319.94549273795, 75239.97279882108, -18869.2532621924, -12017.661275584851, -19245.455473119673, -17640.220241572886, -77102.38720207062, -0.162, -0.268, 0.914, 192.0, 0.0, 0.0, 0.0, 0.0, 0.0, 0.0, 0.0, 0.0, 0.0, 1.696995430973554E9, 0.0, 2023-10-10 20:37:10.973
8.0, -90564.44055610186, -29307.540274565254, 75252.84740362733, -18861.4525033775, -12011.626304581918, -19238.638191060807, -17631.659523446506, -77083.32116405024, -0.162, -0.268, 0.914, 192.0, 0.0, 0.0, 0.0, 0.0, 0.0, 0.0, 0.0, 0.0, 0.0, 1.696995430973597E9, 0.0, 2023-10-10 20:37:10.973
9.0, -90545.86625645951, -29290.485893545854, 75252.78034839396, -18848.577898571242, -11995.890676485382, -19215.504135549563, -17605.373871967062, -77044.71970137593, -0.162, -0.268, 0.914, 192.0, 0.0, 0.0, 0.0, 0.0, 0.0, 0.0, 0.0, 0.0, 0.0, 1.696995430981328E9, 0.0, 2023-10-10 20:37:10.981
10.0, -90562.40654735644, -29304.925120463984, 75236.53063017495, -18869.409724403587, -12013.593258093984, -19230.926839223725, -17617.73438665085, -77048.31833223323, -0.162, -0.268, 0.914, 192.0, 0.0, 0.0, 0.0, 0.0, 0.0, 0.0, 0.0, 0.0, 0.0, 1.69699543098944E9, 0.0, 2023-10-10 20:37:10.989
11.0, -90563.59118981256, -29301.102972162127, 75242.67735990016, -18869.49913138141, -12015.38139765041, -19231.887964235302, -17616.952075594912, -77035.24256172687, -0.162, -0.268, 0.914, 192.0, 0.0, 0.0, 0.0, 0.0, 0.0, 0.0, 0.0, 0.0, 0.0, 1.696995430989509E9, 0.0, 2023-10-10 20:37:10.989
12.0, -90559.18789615488, -29294.41980056999, 75245.40427272371, -18863.955898756492, -12008.51941210263, -19223.215487386642, -17607.340825479132, -77010.49918061486, -0.162, -0.268, 0.914, 192.0, 0.0, 0.0, 0.0, 0.0, 0.0, 0.0, 0.0, 0.0, 0.0, 1.696995430997347E9, 0.0, 2023-10-10 20:37:10.997
13.0, -90571.01196897172, -29301.102972162127, 75236.93296157515, -18875.64586110662, -12018.734159318705, -19230.85978399036, -17613.755776137805, -77002.40784912203, -0.164, -0.274, 0.908, 192.0, 250.0, 224.0, 247.0, 112.0, 28.0, 96.0, 0.0, 0.0, 0.0, 1.696995430997375E9, 0.0, 2023-10-10 20:37:10.997
14.0, -90572.64364631697, -29298.59957678313, 75239.16813602069, -18880.987928031438, -12022.645714598384, -19236.00068521508, -17614.851011616112, -76991.74606701685, -0.164, -0.274, 0.908, 192.0, 0.0, 0.0, 0.0, 0.0, 0.0, 0.0, 0.0, 0.0, 0.0, 1.69699543100444E9, 0.0, 2023-10-10 20:37:11.004
15.0, -90591.10618723705, -29299.381887839067, 75234.2060487516, -18885.97236704497, -12026.601973366973, -19240.202813172677, -17613.19698252642, -76979.74318024435, -0.164, -0.274, 0.908, 192.0, 0.0, 0.0, 0.0, 0.0, 0.0, 0.0, 0.0, 0.0, 0.0, 1.696995431004472E9, 0.0, 2023-10-10 20:37:11.004
16.0, -90606.70770486686, -29291.156445879515, 75237.89408658673, -18880.987928031438, -12021.975162264725, -19232.983199713613, -17603.026938799256, -76957.54789800024, -0.164, -0.274, 0.908, 192.0, 0.0, 0.0, 0.0, 0.0, 0.0, 0.0, 0.0, 0.0, 0.0, 1.696995431010748E9, 0.0, 2023-10-10 20:37:11.010
17.0, -90611.66979213593, -29294.106876147616, 75229.44512718263, -18892.70024212602, -12028.61363036795, -19236.112443937356, -17607.027901056757, -76947.53431648425, -0.164, -0.274, 0.908, 192.0, 0.0, 0.0, 0.0, 0.0, 0.0, 0.0, 0.0, 0.0, 0.0, 1.696995431010815E9, 0.0, 2023-10-10 20:37:11.010
18.0, -90594.66011460545, -29291.46937030189, 75231.63559813924, -18896.50003868342, -12031.09467400249, -19237.744121282594, -17607.38552896804, -76936.73842391235, -0.164, -0.274, 0.908, 192.0, 0.0, 0.0, 0.0, 0.0, 0.0, 0.0, 0.0, 0.0, 0.0, 1.696995431018683E9, 0.0, 2023-10-10 20:37:11.018
19.0, -90563.9711694683, -29266.189547322938, 75240.0622057989, -18876.629337862654, -12011.916877259837, -19210.452641302665, -17578.19415070941, -76893.5548536247, -0.164, -0.274, 0.908, 192.0, 0.0, 0.0, 0.0, 0.0, 0.0, 0.0, 0.0, 0.0, 0.0, 1.696995431018716E9, 0.0, 2023-10-10 20:37:11.018
20.0, -90573.44830911736, -29287.35664932211, 75220.79500207842, -18901.439774208044, -12031.89933680288, -19229.451624089674, -17598.44483118592, -76899.41101067197, -0.164, -0.274, 0.908, 192.0, 0.0, 0.0, 0.0, 0.0, 0.0, 0.0, 0.0, 0.0, 0.0, 1.696995431026534E9, 0.0, 2023-10-10 20:37:11.026
21.0, -90576.91282950793, -29298.577225038676, 75219.34213868882, -18916.393091248643, -12045.91388057636, -19248.562365598962, -17615.34274999413, -76905.66949911947, -0.164, -0.274, 0.908, 192.0, 0.0, 0.0, 0.0, 0.0, 0.0, 0.0, 0.0, 0.0, 0.0, 1.696995431026557E9, 0.0, 2023-10-10 20:37:11.026
22.0, -90575.59407658507, -29289.077733645172, 75220.97381603406, -18913.956751103015, -12041.979973552225, -19242.661505062762, -17608.547819679716, -76886.46935063235, -0.164, -0.274, 0.908, 192.0, 0.0, 0.0, 0.0, 0.0, 0.0, 0.0, 0.0, 0.0, 0.0, 1.696995431033127E9, 0.0, 2023-10-10 20:37:11.033
23.0, -90588.51338488024, -29292.341088335645, 75215.98937702052, -18925.89258264215, -12052.57470042404, -19253.591508101406, -17617.66733141748, -76883.58597559763, -0.17200000000000001, -0.28, 0.904, 192.0, 250.0, 160.0, 247.0, 64.0, 28.0, 64.0, 0.0, 0.0, 0.0, 1.696995431033162E9, 0.0, 2023-10-10 20:37:11.033
24.0, -90590.45798664785, -29282.573376008677, 75220.3032637004, -18919.343521516745, -12045.712714876261, -19245.09784520839, -17606.267941745275, -76861.07776893112, -0.17200000000000001, -0.28, 0.904, 192.0, 0.0, 0.0, 0.0, 0.0, 0.0, 0.0, 0.0, 0.0, 0.0, 1.696995431040365E9, 0.0, 2023-10-10 20:37:11.040
25.0, -90618.91175733946, -29281.16521610799, 75216.21289446508, -18922.003379106925, -12045.66801138735, -19242.639153318305, -17602.781069610246, -76845.11862339004, -0.17200000000000001, -0.28, 0.904, 192.0, 0.0, 0.0, 0.0, 0.0, 0.0, 0.0, 0.0, 0.0, 0.0, 1.696995431048155E9, 0.0, 2023-10-10 20:37:11.048
26.0, -90627.69599291039, -29262.4568059989, 75224.70655735809, -18908.033538822358, -12029.887679801903, -19221.069719918934, -17579.28938618772, -76806.02542233771, -0.17200000000000001, -0.28, 0.904, 192.0, 0.0, 0.0, 0.0, 0.0, 0.0, 0.0, 0.0, 0.0, 0.0, 1.696995431048179E9, 0.0, 2023-10-10 20:37:11.048
27.0, -90632.68043192393, -29264.7590356778, 75211.69784208511, -18918.74002441645, -12038.828377584026, -19222.65669377526, -17580.183455965933, -76790.64742215245, -0.17200000000000001, -0.28, 0.904, 192.0, 0.0, 0.0, 0.0, 0.0, 0.0, 0.0, 0.0, 0.0, 0.0, 1.696995431056239E9, 0.0, 2023-10-10 20:37:11.056
28.0, -90624.56674868664, -29261.562736220687, 75212.63661535224, -18924.618533208195, -12042.471711930242, -19225.94240021019, -17579.647014099006, -76778.77864584669, -0.17200000000000001, -0.28, 0.904, 192.0, 0.0, 0.0, 0.0, 0.0, 0.0, 0.0, 0.0, 0.0, 0.0, 1.696995431056264E9, 0.0, 2023-10-10 20:37:11.056
29.0, -90624.47734170883, -29253.963143105884, 75212.36839441877, -18921.489288984452, -12038.157825250368, -19218.27575186202, -17568.33703140462, -76753.63293333446, -0.17200000000000001, -0.28, 0.904, 192.0, 0.0, 0.0, 0.0, 0.0, 0.0, 0.0, 0.0, 0.0, 0.0, 1.696995431064214E9, 0.0, 2023-10-10 20:37:11.064
30.0, -90648.75133618728, -29267.620058968078, 75202.28775766943, -18941.672914227594, -12055.905110347881, -19239.688723050203, -17587.49247640282, -76760.94195377135, -0.17200000000000001, -0.28, 0.904, 192.0, 0.0, 0.0, 0.0, 0.0, 0.0, 0.0, 0.0, 0.0, 0.0, 1.696995431064238E9, 0.0, 2023-10-10 20:37:11.064
31.0, -90648.48311525382, -29270.2575648138, 75203.60651059229, -18951.015943409915, -12064.018793585157, -19250.350505155388, -17596.701395118405, -76758.43855839236, -0.17200000000000001, -0.28, 0.904, 192.0, 0.0, 0.0, 0.0, 0.0, 0.0, 0.0, 0.0, 0.0, 0.0, 1.696995431072427E9, 0.0, 2023-10-10 20:37:11.072
32.0, -90640.72705992784, -29265.11666358908, 75204.41117339268, -18951.88766144367, -12064.599938940995, -19252.026885989533, -17595.71791836237, -76744.46871810779, -0.17200000000000001, -0.28, 0.904, 192.0, 0.0, 0.0, 0.0, 0.0, 0.0, 0.0, 0.0, 0.0, 0.0, 1.69699543107247E9, 0.0, 2023-10-10 20:37:11.072
33.0, -90642.67166169545, -29266.59187872313, 75203.83002803684, -18955.776864978896, -12068.511494220675, -19257.61482210336, -17599.495363175316, -76737.91965698238, -0.176, -0.28, 0.904, 192.0, 250.0, 128.0, 247.0, 64.0, 28.0, 64.0, 0.0, 0.0, 0.0, 1.696995431080538E9, 0.0, 2023-10-10 20:37:11.080
34.0, -90652.39467053351, -29264.826090911163, 75203.29358616991, -18957.31913534631, -12069.182046554333, -19257.123083725346, -17598.042499785723, -76726.14028765445, -0.176, -0.28, 0.904, 192.0, 0.0, 0.0, 0.0, 0.0, 0.0, 0.0, 0.0, 0.0, 0.0, 1.696995431080562E9, 0.0, 2023-10-10 20:37:11.080
35.0, -90680.49081331382, -29265.56369847819, 75204.14295245921, -18961.856539470737, -12071.81955240006, -19259.604127359882, -17601.328206220653, -76717.93719743934, -0.176, -0.28, 0.904, 192.0, 0.0, 0.0, 0.0, 0.0, 0.0, 0.0, 0.0, 0.0, 0.0, 1.696995431086841E9, 0.0, 2023-10-10 20:37:11.086
36.0, -90681.18371739193, -29254.387826250535, 75207.8980455277, -18956.827396968296, -12065.114029063467, -19248.696476065692, -17591.18051423794, -76694.95960413928, -0.176, -0.28, 0.904, 192.0, 0.0, 0.0, 0.0, 0.0, 0.0, 0.0, 0.0, 0.0, 0.0, 1.696995431086884E9, 0.0, 2023-10-10 20:37:11.086
37.0, -90671.32659808715, -29250.476270970856, 75205.93109201564, -18957.565004535318, -12065.33754650802, -19245.90250800878, -17589.34767119261, -76678.48636847573, -0.176, -0.28, 0.904, 192.0, 0.0, 0.0, 0.0, 0.0, 0.0, 0.0, 0.0, 0.0, 0.0, 1.696995431093442E9, 0.0, 2023-10-10 20:37:11.093
38.0, -90663.7493567168, -29247.12350930256, 75203.53945535893, -18958.90610920264, -12065.046973830102, -19243.779092285527, -17584.117362990066, -76659.599144411, -0.176, -0.28, 0.904, 192.0, 0.0, 0.0, 0.0, 0.0, 0.0, 0.0, 0.0, 0.0, 0.0, 1.696995431093466E9, 0.0, 2023-10-10 20:37:11.093
39.0, -90657.6473304805, -29241.13324178854, 75204.21000769259, -18956.4250655681, -12064.868159874459, -19236.33596138191, -17576.0483832417, -76636.77801332212, -0.176, -0.28, 0.904, 192.0, 0.0, 0.0, 0.0, 0.0, 0.0, 0.0, 0.0, 0.0, 0.0, 1.696995431100488E9, 0.0, 2023-10-10 20:37:11.100
40.0, -90656.97677814684, -29241.021483066263, 75201.57250184685, -18960.783655736883, -12068.53384596513, -19234.637228803305, -17575.24372044131, -76622.65171082637, -0.176, -0.28, 0.904, 192.0, 0.0, 0.0, 0.0, 0.0, 0.0, 0.0, 0.0, 0.0, 0.0, 1.696995431111441E9, 0.0, 2023-10-10 20:37:11.111
41.0, -90658.20612409188, -29233.93598007393, 75204.83585653733, -18962.61649878222, -12065.896340119403, -19231.86561249085, -17569.409915138473, -76602.87041698342, -0.176, -0.28, 0.904, 192.0, 0.0, 0.0, 0.0, 0.0, 0.0, 0.0, 0.0, 0.0, 0.0, 1.696995431111481E9, 0.0, 2023-10-10 20:37:11.111
42.0, -90661.58123750464, -29222.69305261291, 75202.53362685844, -18958.727295246994, -12059.704906905283, -19220.890905963293, -17556.982345221324, -76572.85202417994, -0.176, -0.28, 0.904, 192.0, 0.0, 0.0, 0.0, 0.0, 0.0, 0.0, 0.0, 0.0, 0.0, 1.696995431117739E9, 0.0, 2023-10-10 20:37:11.117
43.0, -90668.86790619706, -29217.44039266591, 75199.0467547234, -18958.50377780244, -12058.408505726875, -19215.258266360554, -17554.590708564607, -76551.86373613641, -0.182, -0.276, 0.902, 192.0, 250.0, 80.0, 247.0, 96.0, 28.0, 48.0, 0.0, 0.0, 0.0, 1.696995431117764E9, 0.0, 2023-10-10 20:37:11.117
44.0, -90686.25756338329, -29216.68043335443, 75195.31401339937, -18962.817664482318, -12061.493046461708, -19216.37585358332, -17556.736476032314, -76537.93859934075, -0.182, -0.276, 0.902, 192.0, 0.0, 0.0, 0.0, 0.0, 0.0, 0.0, 0.0, 0.0, 0.0, 1.696995431124089E9, 0.0, 2023-10-10 20:37:11.124
45.0, -90706.99998223782, -29201.369488402546, 75201.61720533577, -18951.26181259892, -12050.63009865643, -19203.925931921713, -17541.447882824887, -76508.27783444856, -0.182, -0.276, 0.902, 192.0, 0.0, 0.0, 0.0, 0.0, 0.0, 0.0, 0.0, 0.0, 0.0, 1.696995431124125E9, 0.0, 2023-10-10 20:37:11.124
46.0, -90716.83474979816, -29195.513331355254, 75193.97290873204, -18950.501853287442, -12048.14905502189, -19198.449754530164, -17535.859946711058, -76486.93191849375, -0.182, -0.276, 0.902, 192.0, 0.0, 0.0, 0.0, 0.0, 0.0, 0.0, 0.0, 0.0, 0.0, 1.696995431131082E9, 0.0, 2023-10-10 20:37:11.131
47.0, -90716.65593584251, -29209.952558273384, 75182.64057429321, -18972.764190764927, -12067.662127931373, -19219.482746062607, -17555.104798687076, -76493.39157264133, -0.182, -0.276, 0.902, 192.0, 0.0, 0.0, 0.0, 0.0, 0.0, 0.0, 0.0, 0.0, 0.0, 1.69699543113111E9, 0.0, 2023-10-10 20:37:11.131
48.0, -90708.2069764384, -29215.339328687114, 75178.32668761334, -18984.722374048517, -12076.692232691317, -19231.91031597976, -17564.492531358308, -76490.06116271748, -0.182, -0.276, 0.902, 192.0, 0.0, 0.0, 0.0, 0.0, 0.0, 0.0, 0.0, 0.0, 0.0, 1.696995431139188E9, 0.0, 2023-10-10 20:37:11.139
49.0, -90721.43920915594, -29233.377186462545, 75166.72613224103, -19007.655263859662, -12099.893343435926, -19262.33104018343, -17590.800534582202, -76507.49552339263, -0.182, -0.276, 0.902, 192.0, 0.0, 0.0, 0.0, 0.0, 0.0, 0.0, 0.0, 0.0, 0.0, 1.696995431139227E9, 0.0, 2023-10-10 20:37:11.139
50.0, -90711.78325555126, -29240.753262132795, 75174.57159454485, -19017.557086653364, -12111.203326130311, -19283.162866015777, -17605.262113244786, -76517.64321537534, -0.182, -0.276, 0.902, 192.0, 0.0, 0.0, 0.0, 0.0, 0.0, 0.0, 0.0, 0.0, 0.0, 1.696995431147109E9, 0.0, 2023-10-10 20:37:11.147
51.0, -90685.13997616053, -29220.837857823117, 75185.03221094992, -19000.41329865614, -12093.724261966261, -19263.15805472828, -17579.95993852138, -76485.18848242622, -0.182, -0.276, 0.902, 192.0, 0.0, 0.0, 0.0, 0.0, 0.0, 0.0, 0.0, 0.0, 0.0, 1.696995431147141E9, 0.0, 2023-10-10 20:37:11.147
52.0, -90696.09233094363, -29221.374299690047, 75180.74067601451, -19003.564894624342, -12097.255837590199, -19264.56621462896, -17576.942453019914, -76473.34205786492, -0.178, -0.28200000000000003, 0.912, 192.0, 250.0, 112.0, 247.0, 48.0, 28.0, 128.0, 0.0, 0.0, 0.0, 1.696995431155152E9, 0.0, 2023-10-10 20:37:11.155
53.0, -90700.27210715678, -29210.086668740118, 75187.93793772912, -18997.351109665768, -12090.639721231428, -19254.776150557536, -17562.212653423867, -76446.67642672974, -0.178, -0.28200000000000003, 0.912, 192.0, 0.0, 0.0, 0.0, 0.0, 0.0, 0.0, 0.0, 0.0, 0.0, 1.696995431155183E9, 0.0, 2023-10-10 20:37:11.155
54.0, -90716.96886026488, -29198.083781967616, 75184.83104524983, -18993.37249915272, -12080.134401337435, -19238.86170850536, -17546.029990438223, -76414.04287982499, -0.178, -0.28200000000000003, 0.912, 192.0, 0.0, 0.0, 0.0, 0.0, 0.0, 0.0, 0.0, 0.0, 0.0, 1.696995431162222E9, 0.0, 2023-10-10 20:37:11.162
55.0, -90769.33899752368, -29235.21002950788, 75158.70185598158, -19036.109034551268, -12115.651323276918, -19282.089982281923, -17587.939511291923, -76445.0447493845, -0.178, -0.28200000000000003, 0.912, 192.0, 0.0, 0.0, 0.0, 0.0, 0.0, 0.0, 0.0, 0.0, 0.0, 1.696995431162261E9, 0.0, 2023-10-10 20:37:11.162
56.0, -90762.54406720925, -29234.807698107685, 75170.01183867596, -19037.561897940865, -12118.489994822741, -19290.360127730386, -17590.82288632666, -76444.06127262846, -0.178, -0.28200000000000003, 0.912, 192.0, 0.0, 0.0, 0.0, 0.0, 0.0, 0.0, 0.0, 0.0, 0.0, 1.696995431169462E9, 0.0, 2023-10-10 20:37:11.169
57.0, -90750.60823567012, -29227.185753248425, 75171.33059159883, -19029.62702865923, -12113.147927897922, -19281.307671225986, -17575.981328008333, -76421.57541770642, -0.178, -0.28200000000000003, 0.912, 192.0, 0.0, 0.0, 0.0, 0.0, 0.0, 0.0, 0.0, 0.0, 0.0, 1.696995431175775E9, 0.0, 2023-10-10 20:37:11.175
58.0, -90745.69085188996, -29238.20516326489, 75166.41320781865, -19042.322819509845, -12126.804843760116, -19297.736203400636, -17588.498304903307, -76425.82224915293, -0.178, -0.28200000000000003, 0.912, 192.0, 0.0, 0.0, 0.0, 0.0, 0.0, 0.0, 0.0, 0.0, 0.0, 1.696995431175806E9, 0.0, 2023-10-10 20:37:11.175
59.0, -90725.99896502483, -29225.576427647644, 75173.16343464416, -19034.544412439398, -12118.378236100465, -19285.509799183583, -17572.09212447311, -76399.1342662733, -0.178, -0.28200000000000003, 0.912, 192.0, 0.0, 0.0, 0.0, 0.0, 0.0, 0.0, 0.0, 0.0, 0.0, 1.696995431183357E9, 0.0, 2023-10-10 20:37:11.183
60.0, -90733.68796511745, -29230.20323874989, 75164.84858570679, -19043.86508987726, -12128.771797272182, -19293.645834165316, -17577.23302569783, -76394.28393772649, -0.178, -0.28200000000000003, 0.912, 192.0, 0.0, 0.0, 0.0, 0.0, 0.0, 0.0, 0.0, 0.0, 0.0, 1.696995431183388E9, 0.0, 2023-10-10 20:37:11.183
61.0, -90740.90757857652, -29233.667759140466, 75164.06627465085, -19051.755255669985, -12137.645439820939, -19301.983034847144, -17582.709203089384, -76392.56285340343, -0.178, -0.28200000000000003, 0.912, 192.0, 0.0, 0.0, 0.0, 0.0, 0.0, 0.0, 0.0, 0.0, 0.0, 1.696995431190505E9, 0.0, 2023-10-10 20:37:11.190
62.0, -90710.0174677393, -29199.53664535721, 75183.86992023826, -19022.67563613363, -12105.525983038662, -19263.828607061936, -17542.453711325375, -76342.09261442335, -0.18, -0.274, 0.91, 192.0, 250.0, 96.0, 247.0, 112.0, 28.0, 112.0, 0.0, 0.0, 0.0, 1.696995431190543E9, 0.0, 2023-10-10 20:37:11.190
63.0, -90723.78614232376, -29198.128485456527, 75167.2402223635, -19025.179031512624, -12104.721320238272, -19252.04923773399, -17531.680170497915, -76315.24816933252, -0.18, -0.274, 0.91, 192.0, 0.0, 0.0, 0.0, 0.0, 0.0, 0.0, 0.0, 0.0, 0.0, 1.696995431198297E9, 0.0, 2023-10-10 20:37:11.198
64.0, -90764.95805561043, -29216.03223276523, 75157.11488212524, -19046.68140967863, -12123.340323369543, -19270.936461798723, -17550.500339329283, -76321.61841650229, -0.18, -0.274, 0.91, 192.0, 0.0, 0.0, 0.0, 0.0, 0.0, 0.0, 0.0, 0.0, 0.0, 1.696995431198429E9, 0.0, 2023-10-10 20:37:11.198
65.0, -90757.64903517354, -29192.808770276162, 75168.78249273093, -19029.42586295913, -12104.095471393523, -19246.014266731057, -17525.645199494982, -76282.27934626096, -0.18, -0.274, 0.91, 192.0, 0.0, 0.0, 0.0, 0.0, 0.0, 0.0, 0.0, 0.0, 0.0, 1.696995431206098E9, 0.0, 2023-10-10 20:37:11.206
66.0, -90780.71603545142, -29214.53466588672, 75147.48128026501, -19055.53270048293, -12129.129425183466, -19269.684764109228, -17547.214632894353, -76292.35998301029, -0.18, -0.274, 0.91, 192.0, 0.0, 0.0, 0.0, 0.0, 0.0, 0.0, 0.0, 0.0, 0.0, 1.696995431206141E9, 0.0, 2023-10-10 20:37:11.206
67.0, -90786.75100645436, -29218.73679384432, 75149.26941982143, -19066.686220966127, -12138.83008227707, -19287.38734571783, -17558.32344988864, -76294.52810222247, -0.18, -0.274, 0.91, 192.0, 0.0, 0.0, 0.0, 0.0, 0.0, 0.0, 0.0, 0.0, 0.0, 1.696995431214012E9, 0.0, 2023-10-10 20:37:11.214
68.0, -90769.2272388014, -29197.033249978216, 75161.47347229403, -19054.191595815613, -12123.675599536373, -19269.081267008933, -17537.223403122833, -76260.93343030613, -0.18, -0.274, 0.91, 192.0, 0.0, 0.0, 0.0, 0.0, 0.0, 0.0, 0.0, 0.0, 0.0, 1.696995431214044E9, 0.0, 2023-10-10 20:37:11.214
69.0, -90780.5819249847, -29197.569691845143, 75149.15766109916, -19060.83006391884, -12129.44234960584, -19270.24355772061, -17537.402217078474, -76248.01412201097, -0.18, -0.274, 0.91, 192.0, 0.0, 0.0, 0.0, 0.0, 0.0, 0.0, 0.0, 0.0, 0.0, 1.696995431222036E9, 0.0, 2023-10-10 20:37:11.222
70.0, -90788.78501519978, -29204.454029137378, 75141.69217845109, -19073.056468135892, -12138.047771221134, -19280.43595319223, -17544.219499137344, -76244.08021498683, -0.18, -0.274, 0.91, 192.0, 0.0, 0.0, 0.0, 0.0, 0.0, 0.0, 0.0, 0.0, 0.0, 1.696995431222069E9, 0.0, 2023-10-10 20:37:11.222
71.0, -90788.76266345533, -29211.24895945179, 75137.64651270468, -19085.90872119769, -12146.809655047615, -19293.265854509576, -17552.534348074718, -76242.35913066377, -0.18, -0.274, 0.91, 192.0, 0.0, 0.0, 0.0, 0.0, 0.0, 0.0, 0.0, 0.0, 0.0, 1.696995431229244E9, 0.0, 2023-10-10 20:37:11.229
72.0, -90786.19221284297, -29204.319918670648, 75131.6338934462, -19082.62301476276, -12144.507425368718, -19289.175485274256, -17546.924060216435, -76225.61767406674, -0.18, -0.272, 0.912, 192.0, 250.0, 96.0, 247.0, 128.0, 28.0, 128.0, 0.0, 0.0, 0.0, 1.696995431237007E9, 0.0, 2023-10-10 20:37:11.237
73.0, -90802.84426246218, -29207.516218127756, 75132.01387310194, -19091.29549161142, -12150.229471949277, -19295.81395337748, -17551.28265038522, -76219.38153736372, -0.18, -0.272, 0.912, 192.0, 0.0, 0.0, 0.0, 0.0, 0.0, 0.0, 0.0, 0.0, 0.0, 1.696995431237037E9, 0.0, 2023-10-10 20:37:11.237
74.0, -90843.23386469291, -29214.892293798006, 75132.99734985798, -19103.656006295205, -12159.371335431497, -19308.599151205915, -17561.85502551258, -76219.04626119688, -0.18, -0.272, 0.912, 192.0, 0.0, 0.0, 0.0, 0.0, 0.0, 0.0, 0.0, 0.0, 0.0, 1.696995431245159E9, 0.0, 2023-10-10 20:37:11.245
75.0, -90851.83928630821, -29206.59979660509, 75134.00317835846, -19101.934921972148, -12155.392724918453, -19304.329968014954, -17554.590708564607, -76201.76836273294, -0.18, -0.272, 0.912, 192.0, 0.0, 0.0, 0.0, 0.0, 0.0, 0.0, 0.0, 0.0, 0.0, 1.69699543124518E9, 0.0, 2023-10-10 20:37:11.245
76.0, -90832.50502735437, -29185.030363205715, 75145.46962326404, -19085.77461073096, -12138.248936921233, -19276.747915357104, -17524.84053669459, -76162.74221691398, -0.18, -0.272, 0.912, 192.0, 0.0, 0.0, 0.0, 0.0, 0.0, 0.0, 0.0, 0.0, 0.0, 1.696995431251364E9, 0.0, 2023-10-10 20:37:11.251
77.0, -90839.5458268578, -29183.085761438106, 75138.54058248289, -19089.574407288364, -12139.768855544193, -19269.416543175765, -17520.571353503627, -76144.65965564962, -0.18, -0.272, 0.912, 192.0, 0.0, 0.0, 0.0, 0.0, 0.0, 0.0, 0.0, 0.0, 0.0, 1.696995431251425E9, 0.0, 2023-10-10 20:37:11.251
78.0, -90868.58074290524, -29205.839837293606, 75123.65432067566, -19117.35762564631, -12165.987451790268, -19298.71968015667, -17552.020257952245, -76164.7762256594, -0.18, -0.272, 0.912, 192.0, 0.0, 0.0, 0.0, 0.0, 0.0, 0.0, 0.0, 0.0, 0.0, 1.6969954312582E9, 0.0, 2023-10-10 20:37:11.258
79.0, -90850.81110606327, -29179.956517214363, 75144.15087034117, -19094.3576806018, -12146.161454458412, -19272.612842632872, -17527.209821606855, -76129.8180973313, -0.18, -0.272, 0.912, 192.0, 0.0, 0.0, 0.0, 0.0, 0.0, 0.0, 0.0, 0.0, 0.0, 1.696995431258335E9, 0.0, 2023-10-10 20:37:11.258
80.0, -90839.5905303467, -29155.99544715827, 75144.86612616375, -19076.43158154864, -12126.268401893187, -19236.20185091518, -17494.129239813, -76081.62773628566, -0.18, -0.272, 0.912, 192.0, 0.0, 0.0, 0.0, 0.0, 0.0, 0.0, 0.0, 0.0, 0.0, 1.696995431266313E9, 0.0, 2023-10-10 20:37:11.266
81.0, -90861.15996374607, -29179.732999769807, 75122.11205030823, -19111.657930810205, -12154.92333828489, -19262.91218553927, -17524.013522149744, -76097.29630914883, -0.17400000000000002, -0.262, 0.912, 192.0, 250.0, 144.0, 247.0, 208.0, 28.0, 128.0, 0.0, 0.0, 0.0, 1.696995431266347E9, 0.0, 2023-10-10 20:37:11.266
82.0, -90865.6973678705, -29190.283023152715, 75123.83313463129, -19131.953314775626, -12171.374222203996, -19285.174523016754, -17545.650010782483, -76108.44982963202, -0.17400000000000002, -0.262, 0.912, 192.0, 0.0, 0.0, 0.0, 0.0, 0.0, 0.0, 0.0, 0.0, 0.0, 1.696995431272833E9, 0.0, 2023-10-10 20:37:11.272
83.0, -90884.36107449068, -29199.40253489048, 75118.13343979519, -19143.620925381296, -12184.382937476987, -19301.871276124868, -17558.77048477775, -76112.49549537843, -0.17400000000000002, -0.262, 0.912, 192.0, 0.0, 0.0, 0.0, 0.0, 0.0, 0.0, 0.0, 0.0, 0.0, 1.696995431272862E9, 0.0, 2023-10-10 20:37:11.272
84.0, -90883.31054250128, -29185.320935883636, 75130.27043703443, -19134.03202700997, -12176.716289128815, -19296.350395244408, -17548.71219977286, -76093.98825096944, -0.17400000000000002, -0.262, 0.912, 192.0, 0.0, 0.0, 0.0, 0.0, 0.0, 0.0, 0.0, 0.0, 0.0, 1.696995431280852E9, 0.0, 2023-10-10 20:37:11.280
85.0, -90871.57587666225, -29167.97598218632, 75132.23739054649, -19119.235172180553, -12161.852379066037, -19275.607976389885, -17528.95325767437, -76060.5053377754, -0.17400000000000002, -0.262, 0.912, 192.0, 0.0, 0.0, 0.0, 0.0, 0.0, 0.0, 0.0, 0.0, 0.0, 1.696995431280879E9, 0.0, 2023-10-10 20:37:11.280
86.0, -90872.46994644045, -29156.665999491932, 75132.17033531313, -19114.273084911478, -12156.68912609686, -19261.973412272146, -17516.078652868113, -76030.95633160548, -0.17400000000000002, -0.262, 0.912, 192.0, 0.0, 0.0, 0.0, 0.0, 0.0, 0.0, 0.0, 0.0, 0.0, 1.696995431288016E9, 0.0, 2023-10-10 20:37:11.288
87.0, -90893.77115890637, -29166.47841530781, 75123.05082357537, -19133.987323521058, -12171.329518715087, -19274.468037422663, -17528.975609418823, -76027.87179087065, -0.17400000000000002, -0.262, 0.912, 192.0, 0.0, 0.0, 0.0, 0.0, 0.0, 0.0, 0.0, 0.0, 0.0, 1.696995431295912E9, 0.0, 2023-10-10 20:37:11.295
88.0, -90896.83334789674, -29170.166453142938, 75123.6319689312, -19144.224422481588, -12179.823181608102, -19288.63904340733, -17540.442054324398, -76025.9942443364, -0.17400000000000002, -0.262, 0.912, 192.0, 0.0, 0.0, 0.0, 0.0, 0.0, 0.0, 0.0, 0.0, 0.0, 1.696995431295941E9, 0.0, 2023-10-10 20:37:11.295
89.0, -90890.91013561608, -29156.934220425395, 75130.09162307878, -19136.088387499858, -12172.491809426763, -19276.949081057202, -17528.796795463182, -76000.98264229091, -0.17400000000000002, -0.262, 0.912, 192.0, 0.0, 0.0, 0.0, 0.0, 0.0, 0.0, 0.0, 0.0, 0.0, 1.696995431303923E9, 0.0, 2023-10-10 20:37:11.303
90.0, -90883.82463262376, -29142.24912431826, 75132.81853590233, -19133.07090199839, -12164.087553511567, -19263.314516939463, -17516.279818568208, -75976.0827989677, -0.17400000000000002, -0.262, 0.912, 192.0, 0.0, 0.0, 0.0, 0.0, 0.0, 0.0, 0.0, 0.0, 0.0, 1.696995431303945E9, 0.0, 2023-10-10 20:37:11.303
91.0, -90909.64089746964, -29156.24131634728, 75115.29476824937, -19158.12720753279, -12183.98060607679, -19285.57685441695, -17540.509109557763, -75985.17995896102, -0.178, -0.256, 0.906, 192.0, 250.0, 112.0, 248.0, 0.0, 28.0, 80.0, 0.0, 0.0, 0.0, 1.696995431311905E9, 0.0, 2023-10-10 20:37:11.311
92.0, -90918.26867082938, -29156.643647747478, 75117.82051537282, -19163.89395760226, -12186.774574133704, -19293.310557998488, -17546.924060216435, -75977.75917980185, -0.178, -0.256, 0.906, 192.0, 0.0, 0.0, 0.0, 0.0, 0.0, 0.0, 0.0, 0.0, 0.0, 1.696995431311929E9, 0.0, 2023-10-10 20:37:11.311
93.0, -90939.32401410629, -29151.01100814474, 75122.00029158597, -19162.1728732792, -12185.656986910939, -19291.0530318085, -17542.09608341409, -75962.76115927234, -0.178, -0.256, 0.906, 192.0, 0.0, 0.0, 0.0, 0.0, 0.0, 0.0, 0.0, 0.0, 0.0, 1.696995431319941E9, 0.0, 2023-10-10 20:37:11.319
94.0, -90962.72629055099, -29146.048920875663, 75124.52603870942, -19164.251585513543, -12183.555922932139, -19290.270720752564, -17537.80454847867, -75950.177127144, -0.178, -0.256, 0.906, 192.0, 0.0, 0.0, 0.0, 0.0, 0.0, 0.0, 0.0, 0.0, 0.0, 1.696995431320079E9, 0.0, 2023-10-10 20:37:11.320
95.0, -90968.6718545761, -29152.687388978888, 75117.19466652807, -19177.059135086434, -12192.138992802977, -19300.329005757452, -17543.168967147943, -75947.69608350947, -0.178, -0.256, 0.906, 192.0, 0.0, 0.0, 0.0, 0.0, 0.0, 0.0, 0.0, 0.0, 0.0, 1.696995431327073E9, 0.0, 2023-10-10 20:37:11.327
96.0, -90971.51052612193, -29156.82246170312, 75113.5289804374, -19185.150466579256, -12201.683187685394, -19312.220133807677, -17550.790912007204, -75948.27722886529, -0.178, -0.256, 0.906, 192.0, 0.0, 0.0, 0.0, 0.0, 0.0, 0.0, 0.0, 0.0, 0.0, 1.696995431327094E9, 0.0, 2023-10-10 20:37:11.327
97.0, -90978.21604945851, -29171.976944443817, 75109.34920422426, -19203.2330278436, -12218.84932742707, -19335.533003274562, -17571.376868650543, -75962.73880752789, -0.178, -0.256, 0.906, 192.0, 0.0, 0.0, 0.0, 0.0, 0.0, 0.0, 0.0, 0.0, 0.0, 1.696995431333478E9, 0.0, 2023-10-10 20:37:11.333
98.0, -90945.44839208704, -29146.652417975954, 75126.98473059949, -19183.474085745107, -12197.816335894626, -19311.21430530719, -17545.00181019328, -75927.57951349969, -0.178, -0.256, 0.906, 192.0, 0.0, 0.0, 0.0, 0.0, 0.0, 0.0, 0.0, 0.0, 0.0, 1.696995431333576E9, 0.0, 2023-10-10 20:37:11.333
99.0, -90950.90221773412, -29149.178165099405, 75114.17718102661, -19193.64412947227, -12203.60543770855, -19312.175430318766, -17546.36526660505, -75915.8671994051, -0.178, -0.256, 0.906, 192.0, 0.0, 0.0, 0.0, 0.0, 0.0, 0.0, 0.0, 0.0, 0.0, 1.696995431341545E9, 0.0, 2023-10-10 20:37:11.341
100.0, -90956.31133989232, -29152.463871534335, 75115.13830603818, -19203.09891737687, -12208.27695229971, -19320.87025891188, -17552.847272497092, -75912.35797552562, -0.178, -0.256, 0.906, 192.0, 0.0, 0.0, 0.0, 0.0, 0.0, 0.0, 0.0, 0.0, 0.0, 1.696995431341586E9, 0.0, 2023-10-10 20:37:11.341
101.0, -90938.31818560579, -29125.485315976777, 75127.69998642207, -19181.015393855025, -12186.685167155883, -19295.56808418847, -17527.053359395668, -75871.87896631706, -0.176, -0.266, 0.91, 192.0, 250.0, 128.0, 247.0, 176.0, 28.0, 112.0, 0.0, 0.0, 0.0, 1.696995431348143E9, 0.0, 2023-10-10 20:37:11.348
102.0, -90945.87307523169, -29123.33954850907, 75117.75346013946, -19182.60236771135, -12185.522876444207, -19291.47771495315, -17523.030045393712, -75851.56123060719, -0.176, -0.266, 0.91, 192.0, 0.0, 0.0, 0.0, 0.0, 0.0, 0.0, 0.0, 0.0, 0.0, 1.696995431359968E9, 0.0, 2023-10-10 20:37:11.359
103.0, -90971.84580228875, -29125.61942644351, 75110.04210830237, -19193.04063237198, -12191.110812558034, -19297.311520255986, -17528.148594873976, -75843.87223051456, -0.176, -0.266, 0.91, 192.0, 0.0, 0.0, 0.0, 0.0, 0.0, 0.0, 0.0, 0.0, 0.0, 1.69699543136E9, 0.0, 2023-10-10 20:37:11.360
104.0, -90999.45020669106, -29141.533868495688, 75102.6213291432, -19215.258266360554, -12210.46742325633, -19322.59134323494, -17550.52269107374, -75858.51262313279, -0.176, -0.266, 0.91, 192.0, 0.0, 0.0, 0.0, 0.0, 0.0, 0.0, 0.0, 0.0, 0.0, 1.69699543136437E9, 0.0, 2023-10-10 20:37:11.364
105.0, -90997.75147411246, -29150.29575232217, 75102.28605297639, -19229.80925200096, -12224.571374007628, -19343.73609348966, -17567.510016859775, -75868.2132802264, -0.176, -0.266, 0.91, 192.0, 0.0, 0.0, 0.0, 0.0, 0.0, 0.0, 0.0, 0.0, 0.0, 1.696995431364401E9, 0.0, 2023-10-10 20:37:11.364
106.0, -90959.01590097141, -29118.086888562073, 75119.38513748469, -19205.915237178237, -12199.962103362335, -19313.00244486361, -17535.09998739958, -75827.6001605511, -0.176, -0.266, 0.91, 192.0, 0.0, 0.0, 0.0, 0.0, 0.0, 0.0, 0.0, 0.0, 0.0, 1.696995431370781E9, 0.0, 2023-10-10 20:37:11.370
107.0, -90975.46678489051, -29135.38713877048, 75101.16846575361, -19229.116347922845, -12218.245830326776, -19328.268686326588, -17554.076618442134, -75834.50684958778, -0.176, -0.266, 0.91, 192.0, 0.0, 0.0, 0.0, 0.0, 0.0, 0.0, 0.0, 0.0, 0.0, 1.69699543137081E9, 0.0, 2023-10-10 20:37:11.370
108.0, -90993.05760777683, -29155.123729124516, 75090.81960807081, -19253.882080779324, -12241.201071882377, -19357.527119818584, -17584.966729279367, -75855.78571030924, -0.176, -0.266, 0.91, 192.0, 0.0, 0.0, 0.0, 0.0, 0.0, 0.0, 0.0, 0.0, 0.0, 1.696995431378793E9, 0.0, 2023-10-10 20:37:11.378
109.0, -90989.70484610855, -29149.781662199697, 75097.3239657073, -19251.33398191142, -12240.307002104164, -19360.209329153222, -17584.787915323726, -75850.42129163997, -0.176, -0.266, 0.91, 192.0, 0.0, 0.0, 0.0, 0.0, 0.0, 0.0, 0.0, 0.0, 0.0, 1.696995431378909E9, 0.0, 2023-10-10 20:37:11.378
110.0, -90993.7281601105, -29148.731130210297, 75093.50181740544, -19255.737275569114, -12242.855100972069, -19362.0198204541, -17585.167894979466, -75843.08991945862, -0.176, -0.266, 0.91, 192.0, 0.0, 0.0, 0.0, 0.0, 0.0, 0.0, 0.0, 0.0, 0.0, 1.696995431386927E9, 0.0, 2023-10-10 20:37:11.386
111.0, -90966.14610745265, -29125.44061248787, 75108.6339484017, -19238.1911561717, -12223.297324573676, -19338.081102142467, -17563.352592391086, -75808.44471555289, -0.176, -0.272, 0.916, 192.0, 250.0, 128.0, 247.0, 128.0, 28.0, 160.0, 0.0, 0.0, 0.0, 1.696995431386957E9, 0.0, 2023-10-10 20:37:11.386
112.0, -90979.80302331485, -29124.255970031736, 75098.30744246334, -19242.080359706924, -12222.626772240017, -19329.274514827077, -17558.23404291082, -75787.54583448719, -0.176, -0.272, 0.916, 192.0, 0.0, 0.0, 0.0, 0.0, 0.0, 0.0, 0.0, 0.0, 0.0, 1.696995431394107E9, 0.0, 2023-10-10 20:37:11.394
113.0, -91030.34031752829, -29147.546487754167, 75086.01398301292, -19270.936461798723, -12246.051400429178, -19359.650535541838, -17590.75583109329, -75810.61283476507, -0.176, -0.272, 0.916, 192.0, 0.0, 0.0, 0.0, 0.0, 0.0, 0.0, 0.0, 0.0, 0.0, 1.696995431394131E9, 0.0, 2023-10-10 20:37:11.394
114.0, -91031.10027683977, -29135.610656215034, 75094.39588718365, -19264.34269718441, -12238.384752081009, -19353.21323313871, -17583.536217634228, -75795.68186946891, -0.176, -0.272, 0.916, 192.0, 0.0, 0.0, 0.0, 0.0, 0.0, 0.0, 0.0, 0.0, 0.0, 1.696995431403077E9, 0.0, 2023-10-10 20:37:11.403
115.0, -91002.42298870362, -29116.634025172476, 75100.94494830906, -19253.390342401308, -12223.006751895757, -19333.54369801804, -17561.676211556936, -75764.54588944267, -0.176, -0.272, 0.916, 192.0, 0.0, 0.0, 0.0, 0.0, 0.0, 0.0, 0.0, 0.0, 0.0, 1.69699543140311E9, 0.0, 2023-10-10 20:37:11.403
116.0, -90996.90210782316, -29115.51643794971, 75090.50668364843, -19257.77128431455, -12224.929001918914, -19331.576744505972, -17559.977478978333, -75751.7830433587, -0.176, -0.272, 0.916, 192.0, 0.0, 0.0, 0.0, 0.0, 0.0, 0.0, 0.0, 0.0, 0.0, 1.696995431409131E9, 0.0, 2023-10-10 20:37:11.409
117.0, -90992.94584905457, -29116.7234321503, 75087.35508768023, -19266.75668558558, -12231.23219385531, -19340.83036671047, -17568.515845360263, -75749.77138635772, -0.176, -0.272, 0.916, 192.0, 0.0, 0.0, 0.0, 0.0, 0.0, 0.0, 0.0, 0.0, 0.0, 1.696995431409152E9, 0.0, 2023-10-10 20:37:11.409
118.0, -90961.11696495021, -29095.13164700647, 75101.01200354243, -19250.037580733013, -12213.194336079876, -19319.417395522287, -17546.81230149416, -75715.8190865301, -0.176, -0.272, 0.916, 192.0, 0.0, 0.0, 0.0, 0.0, 0.0, 0.0, 0.0, 0.0, 0.0, 1.696995431415291E9, 0.0, 2023-10-10 20:37:11.415
119.0, -90951.97510146798, -29085.85567305752, 75094.39588718365, -19249.635249332816, -12207.628751710505, -19304.508781970595, -17531.79192922019, -75686.20302512683, -0.176, -0.272, 0.916, 192.0, 0.0, 0.0, 0.0, 0.0, 0.0, 0.0, 0.0, 0.0, 0.0, 1.696995431423065E9, 0.0, 2023-10-10 20:37:11.423
120.0, -90978.26075294743, -29107.201589012337, 75080.00136375445, -19280.19008400322, -12231.70158048887, -19332.671979984283, -17560.670383056447, -75701.13399042297, -0.168, -0.28, 0.912, 192.0, 250.0, 192.0, 247.0, 64.0, 28.0, 128.0, 0.0, 0.0, 0.0, 1.696995431423091E9, 0.0, 2023-10-10 20:37:11.423
121.0, -90975.06445349031, -29091.555367893623, 75096.80987558483, -19272.925767055247, -12221.732702461804, -19327.575782248474, -17555.37301962054, -75682.47028380279, -0.168, -0.28, 0.912, 192.0, 0.0, 0.0, 0.0, 0.0, 0.0, 0.0, 0.0, 0.0, 0.0, 1.696995431431275E9, 0.0, 2023-10-10 20:37:11.431
122.0, -90987.3802646852, -29068.354257149014, 75097.61453838523, -19258.710057581673, -12206.444109254375, -19302.76534590308, -17533.80358622117, -75643.28767577263, -0.168, -0.28, 0.912, 192.0, 0.0, 0.0, 0.0, 0.0, 0.0, 0.0, 0.0, 0.0, 0.0, 1.696995431431307E9, 0.0, 2023-10-10 20:37:11.431
123.0, -91017.57747144431, -29083.24051895625, 75083.24236670046, -19280.838284592424, -12225.0854641301, -19323.574819990972, -17556.08827544311, -75654.64236195594, -0.168, -0.28, 0.912, 192.0, 0.0, 0.0, 0.0, 0.0, 0.0, 0.0, 0.0, 0.0, 0.0, 1.696995431437858E9, 0.0, 2023-10-10 20:37:11.437
124.0, -91017.71158191105, -29097.47858017428, 75079.08494223177, -19299.546694701516, -12242.363362594053, -19349.279326114574, -17580.85400829959, -75671.04854238612, -0.168, -0.28, 0.912, 192.0, 0.0, 0.0, 0.0, 0.0, 0.0, 0.0, 0.0, 0.0, 0.0, 1.69699543143821E9, 0.0, 2023-10-10 20:37:11.438
125.0, -90990.08482576428, -29090.258966715213, 75086.5727766243, -19296.506857455595, -12239.658801514961, -19350.50867205962, -17579.781124565736, -75660.8114434256, -0.168, -0.28, 0.912, 192.0, 0.0, 0.0, 0.0, 0.0, 0.0, 0.0, 0.0, 0.0, 0.0, 1.696995431445686E9, 0.0, 2023-10-10 20:37:11.445
126.0, -90975.48913663496, -29087.62146086949, 75087.28803244687, -19297.57974118945, -12239.32352534813, -19351.849776726936, -17577.43419139793, -75650.82021365408, -0.168, -0.28, 0.912, 192.0, 0.0, 0.0, 0.0, 0.0, 0.0, 0.0, 0.0, 0.0, 0.0, 1.696995431445708E9, 0.0, 2023-10-10 20:37:11.445
127.0, -90951.68452879007, -29066.722579803776, 75096.6757651181, -19280.234787492132, -12218.603458238062, -19329.47568052717, -17552.869624241546, -75614.5433324031, -0.168, -0.28, 0.912, 192.0, 0.0, 0.0, 0.0, 0.0, 0.0, 0.0, 0.0, 0.0, 0.0, 1.696995431453655E9, 0.0, 2023-10-10 20:37:11.453
128.0, -90953.65148230213, -29073.025771740173, 75083.64469810066, -19296.99859583361, -12226.89595543098, -19338.59519226494, -17563.48670285782, -75610.78823933462, -0.168, -0.28, 0.912, 192.0, 0.0, 0.0, 0.0, 0.0, 0.0, 0.0, 0.0, 0.0, 0.0, 1.696995431453696E9, 0.0, 2023-10-10 20:37:11.453
129.0, -90955.30551139182, -29088.537882392156, 75076.69330557506, -19322.54663974603, -12248.219519641343, -19370.44642811375, -17592.968653794367, -75633.13998378992, -0.168, -0.28, 0.912, 192.0, 0.0, 0.0, 0.0, 0.0, 0.0, 0.0, 0.0, 0.0, 0.0, 1.696995431461878E9, 0.0, 2023-10-10 20:37:11.461
130.0, -90946.47657233199, -29085.296879446138, 75079.12964572068, -19321.943142645734, -12249.135941164011, -19374.0227072266, -17593.750964850304, -75629.0049110657, -0.162, -0.28200000000000003, 0.916, 192.0, 250.0, 240.0, 247.0, 48.0, 28.0, 160.0, 0.0, 0.0, 0.0, 1.696995431461948E9, 0.0, 2023-10-10 20:37:11.461
131.0, -90945.22487464249, -29084.067533501093, 75084.15878822313, -19326.078215369966, -12247.973650452335, -19379.610643340427, -17596.656691629494, -75626.72503313125, -0.162, -0.28200000000000003, 0.916, 192.0, 0.0, 0.0, 0.0, 0.0, 0.0, 0.0, 0.0, 0.0, 0.0, 1.696995431470003E9, 0.0, 2023-10-10 20:37:11.470
132.0, -90973.00809300043, -29088.85080681453, 75075.68747707456, -19336.62823875287, -12254.008621455267, -19387.545512622062, -17604.703319633405, -75627.88732384292, -0.162, -0.28200000000000003, 0.916, 192.0, 0.0, 0.0, 0.0, 0.0, 0.0, 0.0, 0.0, 0.0, 0.0, 1.696995431470039E9, 0.0, 2023-10-10 20:37:11.470
133.0, -90986.93322979608, -29092.89647256094, 75075.93334626357, -19347.379427835873, -12263.597519826595, -19402.096498262465, -17618.78491864025, -75636.51509720267, -0.162, -0.28200000000000003, 0.916, 192.0, 0.0, 0.0, 0.0, 0.0, 0.0, 0.0, 0.0, 0.0, 0.0, 1.69699543147694E9, 0.0, 2023-10-10 20:37:11.476
134.0, -90950.47753458947, -29069.18127169386, 75089.7243725925, -19324.44653802473, -12241.55869979366, -19375.45321887174, -17592.342804949618, -75600.68525084082, -0.162, -0.28200000000000003, 0.916, 192.0, 0.0, 0.0, 0.0, 0.0, 0.0, 0.0, 0.0, 0.0, 0.0, 1.696995431484787E9, 0.0, 2023-10-10 20:37:11.484
135.0, -90939.8157524843, -29062.006361723707, 75085.09756149026, -19319.976189133668, -12233.579127023117, -19362.913890232314, -17581.636319355526, -75577.86411975195, -0.162, -0.28200000000000003, 0.916, 192.0, 0.0, 0.0, 0.0, 0.0, 0.0, 0.0, 0.0, 0.0, 0.0, 1.696995431484817E9, 0.0, 2023-10-10 20:37:11.484
136.0, -90950.83516250076, -29061.067588456583, 75076.24627068595, -19328.782776449058, -12237.155406135966, -19364.478512344183, -17584.452639156894, -75566.97882020222, -0.162, -0.28200000000000003, 0.916, 192.0, 0.0, 0.0, 0.0, 0.0, 0.0, 0.0, 0.0, 0.0, 0.0, 1.696995431490999E9, 0.0, 2023-10-10 20:37:11.490
137.0, -90956.31133989232, -29064.55446059161, 75076.51449161941, -19336.963514919702, -12241.737513749304, -19374.603852582437, -17592.0522322717, -75564.5871835455, -0.162, -0.28200000000000003, 0.916, 192.0, 0.0, 0.0, 0.0, 0.0, 0.0, 0.0, 0.0, 0.0, 0.0, 1.696995431491027E9, 0.0, 2023-10-10 20:37:11.491
138.0, -90935.05483091532, -29041.46510856928, 75082.05772424433, -19316.623427465373, -12220.056321627657, -19346.910041202314, -17562.61498482406, -75524.1752295703, -0.162, -0.28200000000000003, 0.916, 192.0, 0.0, 0.0, 0.0, 0.0, 0.0, 0.0, 0.0, 0.0, 0.0, 1.696995431498234E9, 0.0, 2023-10-10 20:37:11.498
139.0, -90947.32593862129, -29053.736216275243, 75068.13258744868, -19337.92463993128, -12236.998943924778, -19363.45033209924, -17580.183455965933, -75530.41136627333, -0.162, -0.28200000000000003, 0.916, 192.0, 0.0, 0.0, 0.0, 0.0, 0.0, 0.0, 0.0, 0.0, 0.0, 1.696995431498429E9, 0.0, 2023-10-10 20:37:11.498
140.0, -90931.03151691337, -29041.643922524923, 75075.32984916327, -19333.498994529127, -12231.031028155212, -19357.728285518682, -17573.455580884885, -75515.39099399936, -0.158, -0.272, 0.912, 192.0, 251.0, 16.0, 247.0, 128.0, 28.0, 128.0, 0.0, 0.0, 0.0, 1.696995431506022E9, 0.0, 2023-10-10 20:37:11.506
141.0, -90942.9673484525, -29052.708036030297, 75058.96837222199, -19350.2180993817, -12245.760827751259, -19372.01105022562, -17588.163028736475, -75521.94005512477, -0.158, -0.272, 0.912, 192.0, 0.0, 0.0, 0.0, 0.0, 0.0, 0.0, 0.0, 0.0, 0.0, 1.696995431506054E9, 0.0, 2023-10-10 20:37:11.506
142.0, -90986.26267746242, -29083.173463722884, 75044.43973832605, -19389.847742300957, -12281.098935735099, -19420.1343560379, -17635.14639558153, -75566.4870818242, -0.158, -0.272, 0.912, 192.0, 0.0, 0.0, 0.0, 0.0, 0.0, 0.0, 0.0, 0.0, 0.0, 1.69699543151307E9, 0.0, 2023-10-10 20:37:11.513
